Channel 1 - P4;Channel 2 - O2;Channel 3 - P8;Channel 4 - T8;Channel 5 - C4;Channel 6 - Cz;Channel 7 - Fz;Channel 8 - F4;Channel 9 - Fp2;Channel 10 - F8;Channel 11 - Fp1;Channel 12 - F7;Channel 13 - F3;Channel 14 - C3;Channel 15 - T7;Channel 16 - P7;Channel 17 - P3;Channel 18 - O1;Channel 19 - Pz
-122.5048282;31.09286607;-72.80091328;17.8426157;9.392329976;29.29202514;-37.10984057;7.944175152;17.88732398;-122.6938421;-18.02823025;43.04306122;38.01469823;41.09443935;69.69483889;26.48677123;55.16439182;27.08344074;43.85703986
-63.4263854;14.92387263;-68.86504608;5.736279996;-4.228056235;10.84975417;-52.72639793;-0.257683334;5.193511082;-84.56735956;-20.12003906;25.6144186;19.92985072;17.51359027;66.83783852;7.836996634;30.67476244;18.43033692;18.80058723
7.513998418;-1.612038333;-34.36301588;1.264146996;-10.27971769;-6.236840785;-29.94285015;-2.49382806;-4.898934278;-8.391861068;-12.29176231;2.806547044;-0.559868343;-8.605161902;51.61613025;-7.343801037;2.406975878;8.446654587;-4.368794685
49.88646198;-8.664810863;4.648804979;6.993000687;-6.137405202;-12.82985192;16.92921894;2.258029256;-4.328410642;59.85713676;1.729882657;-10.47953127;-10.60811775;-22.55672947;38.58740687;-8.046444544;-13.60061757;4.934799423;-13.68462642
47.04524676;-4.974724375;21.92878604;18.16991633;3.576646652;-7.796250381;56.8207388;9.88;5.678351267;84.5718181;13.03206286;-8.722802614;-6.050653899;-19.32651554;35.66337607;5.029004793;-11.52948178;9.023370415;-7.947444166
14.36989805;2.699717372;10.27450384;26.93440199;10.99063827;2.239310534;63.93450635;14.70175303;16.43788603;63.60491726;14.32147623;1.936617919;6.712056758;-5.915550342;40.61512379;20.81693477;1.56718184;15.29398442;3.874418137
-15.95353945;5.960553988;-14.87730744;28.20737427;11.06060351;8.619856861;35.30489421;13.97771709;19.01186744;25.33396367;5.383880619;10.03235312;16.57469458;5.097464416;45.47388094;27.1020171;12.52946144;16.86312101;10.47767163
-20.35830186;1.528870922;-29.42092834;22.67499448;4.978907037;7.141157261;-8.87328448;9.715493199;10.95900314;3.816554032;-7.042960553;8.123127249;16.34833274;5.325648232;44.20653196;20.01639933;12.49574202;11.19955679;6.833977878
0.326041158;-6.844108134;-20.14939353;15.09603545;-1.48321848;0.395890494;-41.30436276;6.595630311;-2.401440747;12.79740618;-14.67978905;-2.120116987;7.482824191;-3.87098925;37.38354364;6.346032205;2.867978561;2.095481572;-2.97233732
25.48007813;-12.26523344;5.860112005;10.02390624;-2.989706444;-5.316898851;-46.91040653;7.906704798;-12.66017877;38.71727192;-13.93031681;-12.38582337;-2.228238085;-13.78974341;30.87838943;-2.674041868;-7.197933162;-3.52604661;-10.23823024
33.76007813;-10.66855343;28.77540137;8.711397875;1.202411292;-5.499426355;-30.88992822;12.90115434;-14.78209803;56.24814766;-8.009803487;-14.95023894;-5.432008562;-16.09313232;30.65849789;-0.473050778;-8.965908248;-1.138985179;-9.196436902
20.14251892;-3.849508468;33.14831407;9.357044998;7.142081951;-0.795856208;-10.93634954;17.62804516;-10.21801824;51.46099567;-3.572160846;-8.548521066;-0.777981374;-9.33266976;38.30453036;10.3962147;-1.040996207;8.015129982;-1.360180184
-2.149655011;2.593186553;20.03010419;9.720039063;9.842590331;4.217467841;-1.65854011;18.34867326;-4.615789083;32.64597894;-4.889348015;1.466114984;6.888593437;0.654314145;50.44213575;21.62561071;10.23131492;18.18684074;6.465762694
-14.5184946;4.210039063;4.518323023;9.328055071;7.405565896;5.284807215;-4.321942119;14.58260156;-2.532500182;20.56560533;-10.41197105;8.090281203;11.1890665;6.137520222;61.66247822;26.76981494;16.52117149;23.63413209;8.254546815
-8.554531545;1.187485801;1.867899965;9.404856271;2.22521108;1.960178798;-9.151555717;9.313574558;-3.722353113;27.9240405;-14.33666914;8.25965068;9.454162533;3.810946718;68.01810071;26.23678066;14.23843585;22.58348317;3.565457916
8.60433026;-2.361950615;14.62123864;11.09;-1.430525355;-2.453370157;-6.363290021;6.377144596;-3.910786118;46.69285042;-11.62112297;4.61729695;4.318619946;-3.0726917;68.55575959;25.55859614;6.798402013;17.67164347;-2.721088839
22.22483747;-2.290127926;31.54209822;14.08149225;-1.118778632;-4.089884166;4.627519937;7.379327659;0.920061035;54.51755942;-2.215023311;2.567393728;0.868741735;-8.005250189;64.60991918;29.03642622;1.115747396;13.05718639;-5.02970416
23.05096053;2.085031191;38.45250212;17.12357008;1.999196141;-1.849441703;15.56481302;10.72568093;10.53551182;34.58496125;8.824827334;5.544415032;2.224972732;-6.742754737;58.35751031;34.91370037;1.759809387;11.04018294;-1.8188416
14.00701693;7.756794272;30.89431862;19.66137893;4.609133792;1.947808978;17.91268396;13.39418313;20.10553269;-8.339697123;15.16322455;12.46058141;7.346596122;-0.387627054;52.0089028;36.66663288;7.692303408;11.01376185;3.550316564
5.709255259;10.92290407;17.52789152;22.66936591;4.387432035;3.883048037;11.14529769;13.72278947;23.74235302;-49.69153952;13.69332468;19.05555998;12.53726637;6.147233952;47.64134499;29.32571511;13.8646213;11.17384962;6.180602414
6.006317716;10.21117048;11.77430029;27.48080904;1.975703361;2.48386279;3.169391216;12.7313929;18.99955338;-63.53524221;6.231682239;21.56143776;14.87996449;8.5;46.81923726;15.05792167;15.76376814;10.93413531;4.007248904
13.31907197;7.465516518;19.57010649;33.61333825;0.152836217;-0.680915268;2.833071263;12.91870559;8.768660852;-42.52333981;-2.510627083;19.49993644;14.45943777;6.182413254;49.70655772;2.712691615;12.85736691;11.61322985;-0.650384658
19.21348696;5.713139731;34.19089494;37.93150664;1.132237769;-2.632940705;11.66128212;15.74280435;-0.790553156;-3.180221283;-8.56302824;15.59050316;13.6796389;2.324734129;54.54822162;1.261557917;8.325157721;14.83865155;-3.462383835
16.97298387;6.41234046;42.51195492;36.5411656;4.508439039;-1.705878699;22.43888769;20.11038816;-4.535698593;27.35453412;-10.85291728;13.33466081;14.69586631;0.559695015;58.60868076;12.4674857;5.869010486;20.37527503;-2.04143564
7.887254405;8.47094663;36.88882382;28.26529071;7.67131943;1.09515141;25.88206661;23.23546972;-1.560315689;31.89777981;-10.48623929;14.54714647;17.47735283;2.021756407;60.35871031;28.9833648;6.688635509;25.62584332;2.061885345
-0.295915757;9.674862993;22.04869353;16.72180002;8.229321715;3.178832334;19.2925075;23.09;4.844562267;14.580979;-8.408770113;18.6836112;20.1282922;4.925149429;61.09857901;39.63042281;9.100078125;27.43837308;4.922628766
-0.807781907;8.92760851;10.99073404;8.751972675;6.20367122;2.768756111;9.323126666;20.25719302;10.05093548;-5.1582883;-3.979362336;23.97803516;20.86619425;6.657466889;64.12531504;37.6560972;10.6411653;24.65451439;3.777946639
5.997624331;7.129140825;13.60854081;9.849807592;4.019534798;0.419082807;6.245213331;17.53041497;11.35052416;-9.658513386;4.114753673;28.94211251;19.62039062;6.182174421;71.51957717;25.37189309;10.3772388;19.10127906;-0.654904124
13.37546061;6.004123349;27.98631184;19.92123503;4.323596643;-1.630747695;14.64291031;17.58124634;9.257566278;3.422489647;15.5234578;32.8793747;17.79841773;4.592925817;81.07822321;11.67894303;9.298374836;14.1195558;-5.009903641
14.78232326;6.202252662;41.79400591;32.78993585;7.584370334;-1.553345185;28.64816374;20.69855211;6.317333018;21.51469862;26.85902827;35.35649113;16.65733215;3.611411459;86.46363712;4.858136841;8.757181652;11.9279742;-6.331056172
9.966034576;6.61366344;42.38864825;40.11746617;11.59399386;0.462129972;35.97242106;24.5353856;4.798438089;29.56793021;32.93953895;35.6577792;16.04085486;3.726547755;81.33912028;6.649384214;8.762742297;12.11565565;-4.564334142
4.909423661;5.554082937;26.92415018;36.9836332;13.29652465;2.490063477;27.52820801;26.0702202;5.19394762;22.93588557;30.05381333;33.10219033;14.77458837;3.81604611;64.75901638;12.1465232;7.912603707;12.46890782;-2.359044158
5.86805557;2.589644868;4.160766622;25.05944118;11.34557692;2.676253227;4.785005697;24.10878164;6.437842365;9.964652927;18.80682737;27.99093228;12.27782853;2.498289024;43.41328753;14.92352608;4.99154028;11.21208141;-2.527025607
13.21866385;-0.868680297;-12.96097094;11.1616507;7.204902479;0.884505409;-21.00810658;20.22544953;7.223508517;3.257966673;4.236117456;22.08203171;9.671187551;-0.249779406;28.26207862;12.57932749;0.565605928;8.544414408;-5.52122057
20.89373112;-2.856876974;-17.22080009;2.477281408;3.908105959;-1.26921497;-36.88153802;17.39511076;7.081861149;8.265360565;-7.098935924;17.78488908;9.090102556;-2.882196628;27.40398763;8.036181505;-3.11740529;6.141065713;-9.128226321
21.9054168;-2.808806373;-11.27690012;2.084166655;3.598369609;-1.936498928;-36.94170207;17.50732071;6.386429624;19.27305726;-11.07779196;16.48951161;11.66316228;-3.729716191;40.27500255;6.010488317;-3.968182805;5.261489624;-10.50605393
14.81655068;-2.22314705;-3.446469981;7.825830084;5.93349946;-0.676469166;-25.27192525;19.8392989;5.564643875;25.54613356;-8.286037057;17.41519324;16.01770417;-2.703239916;57.66615682;8.309659408;-1.974568355;5.397987437;-8.655339484
5.182862199;-3.282181069;0.227970894;14.80125069;8.597309321;1.245091155;-11.47625863;21.69828696;4.467432513;21.30815884;-3.118247776;18.09709835;18.86402494;-1.566385364;67.83169723;12.31115161;0.614517834;4.809347958;-5.165443689
0.651840066;-6.642462845;0.377860707;19.08758002;9.324779691;2.086252493;-3.20585614;20.62556246;2.561065719;10.44124509;-0.51442368;16.2789401;17.39952258;-2.423712281;64.37545874;13.76836449;1.10138357;2.409495261;-2.71934384
4.212647875;-10.51105993;1.895871448;19.8502538;7.64432254;1.20604036;-1.70374821;16.33187007;-0.273113004;2.203272599;-2.687815438;11.72562525;11.58863606;-5.765795839;50.26826857;11.04970906;-1.403506976;-0.878630668;-2.811103735
11.72696253;-12.01482801;7.893873709;18.763947;4.944971141;-0.438738093;-3.095628704;10.86972298;-3.169498304;2.523534959;-8.006024741;6.455683484;4.364983232;-9.872179289;35.297332;6.72156674;-5.240346286;-2.725503245;-4.687089742
15.89881626;-9.734186154;16.18137468;17.92209538;3.022638987;-1.259851081;-3.158625537;7.054306376;-4.600430785;9.046136329;-12.54053908;3.182516297;-0.475304093;-12.16194299;29.11046241;5.00041911;-7.583799402;-1.499033445;-6.287485197
12.95888022;-5.093903931;21.47164212;18.26031013;2.530024414;-0.517162554;-0.943987019;6.501983681;-3.460264485;14.1405879;-12.98366131;3.248539236;-0.97020182;-11.31489212;35.00665019;7.521415154;-6.701500712;2.095041059;-6.159413399
5.931538685;-1.24197662;20.79459269;19.52644906;2.674436172;1.051350299;1.501858302;8.782534076;-0.082811112;12.59007813;-8.88251257;5.741174162;1.902016592;-8.289192182;48.6101718;11.47699036;-3.147241511;5.476337613;-4.570375543
1.573515848;-0.318897302;16.59448784;21.19965012;2.260841987;1.977227033;2.176176057;12.11383196;3.652485318;6.559539311;-2.812319768;8.444684839;5.472279297;-5.368102189;61.66145442;12.01540435;1.002700027;6.469024722;-2.940384344
3.919093444;-1.560411173;14.4237114;23.06378054;0.961522214;1.442295064;1.511012232;14.78054528;5.302586202;3.288003641;1.419337599;9.713608715;7.734219756;-4.148472788;67.58972941;6.843365132;3.99658837;5.345504853;-2.306701126
10.47058827;-2.022918337;17.50742222;24.86255479;-0.407067153;0.00546762;1.850413259;16.07197862;3.300944991;7.863309316;1.215574603;9.616982711;8.711275227;-4.306985813;64.89855748;-1.154310751;5.607235276;4.666827638;-2.346017819
14.60659023;0.615394753;23.53829342;25.68115859;-0.793903236;-0.963753042;4.834495251;16.19198336;-2.103880118;17.96664534;-3.306477787;9.422303663;9.77744352;-4.215895676;56.69652601;-5.825984494;6.727465784;6.902396456;-1.829542688
12.01538938;5.66055459;26.91707873;24.09436921;-0.061150665;-0.580229289;9.487888273;15.56734811;-9.010444891;25.55630201;-9.608127653;10.00523157;11.78110763;-2.750039063;47.6936794;-2.763540297;7.996313703;11.9007127;0.025457119
5.175826487;9.645051021;24.35355868;19.29232982;0.774776057;0.745230548;12.94334416;14.37404532;-14.98376071;23.99748156;-14.50245252;10.73012594;13.86423451;-0.532133837;41.29309584;6.816481196;8.967471931;16.57366783;2.666328949
1.5819715;9.141493946;18.38107849;12.21655228;0.460451619;1.710744753;13.06932932;12.66335134;-18.40119256;14.1247063;-16.215017;9.89445055;14.13187261;0.589926726;38.47228901;16.68167491;8.685956892;17.28388237;4.637427564
7.064657517;3.757714919;15.20210995;5.464779977;-1.282145245;1.344973761;10.45025625;10.7485577;-19.22556171;3.692374388;-15.43726303;6.371717185;11.53320913;-0.639415698;38.32197303;20.25805507;7.039302143;12.99095244;4.902732288
20.10356261;-3.335790923;18.701946;1.731440213;-3.39968521;-0.091211386;7.85838511;9.256452019;-18.8256381;0.668248232;-14.76165584;0.933503207;7.138755518;-3.4982398;39.11808414;15.53075442;5.381651015;6.401118105;3.786753553
32.32725529;-7.895435131;26.32497869;1.938719685;-4.36487863;-1.342345681;7.773948134;8.67454209;-19.04452623;6.369095707;-16.91661589;-4.059018063;3.523380763;-5.716943597;39.1588375;6.214014361;5.573004379;1.980637494;2.645887963
35.02997424;-8.017543174;31.02430308;4.641945587;-3.4777444;-1.300039063;10.29988893;8.847468268;-21.1;14.54057288;-22.96044412;-6.471130208;2.706042568;-5.448803387;37.40714252;-1.558891856;8.154642227;2.393337264;2.595230811
26.23743629;-5.533984718;27.85246709;7.272380998;-1.431017079;0.002027416;13.33794597;9.01798906;-24.91904826;17.12304797;-31.58715194;-6.188310045;4.45400717;-3.040835847;34.13438222;-4.066418908;11.3847728;6.355443433;3.498843134
12.31472806;-4.179769108;19.14532907;8.18113916;0.360898739;1.434747174;14.70649633;8.491425379;-29.21978021;11.49114119;-39.94921368;-5.254144659;6.483103515;-0.94515706;31.18821815;-2.340174865;12.25938526;9.76908576;4.164140151
2.793215382;-6.135694128;13.11285709;7.72911402;1.036352875;1.796178568;14.11406482;7.333045112;-32.2577956;2.724402656;-45.40733124;-6.090269472;6.414103981;-1.713435373;31.16286425;-0.374931451;8.893980109;9.225453835;3.536223001
2.869580338;-9.977488383;16.50258064;7.524999175;0.989941003;0.869072751;13.17999095;6.380111987;-32.83140602;-1.025470096;-47.04832419;-9.246351575;3.783203617;-5.737108316;35.44551424;-1.152632206;2.30634777;4.931415856;1.751986643
9.866581782;-11.83992357;27.66566368;8.600377352;1.374548285;-0.431579247;13.64351654;6.452631857;-31.03261076;4.136782788;-46.05095308;-12.67388221;0.356895861;-10.69640725;42.43141536;-4.099395317;-4.017289726;0.574371809;0.058269824
16.34477477;-8.793001481;36.56062538;10.28849853;2.891333587;-0.920058594;15.60249195;7.442437745;-28.35715213;14.33949245;-44.82608238;-13.33227537;-1.493196433;-13.26438439;47.7360112;-6.038568976;-6.581793954;0.221233277;-0.3267628
16.79470805;-1.489754285;32.45387401;10.9153672;5.017463173;-0.202430607;17.48138924;8.173147559;-27.09990243;21.27913047;-45.67;-9.937927276;-0.895189943;-11.69404269;47.01363044;-4.471283872;-4.44401682;4.851217108;0.661310403
11.98207495;6.223082198;13.21786137;9.683037847;6.413659021;1.017946906;17.67119829;7.284757253;-29.32226818;19.35607675;-49.85686619;-4.544887145;0.785403262;-7.158941457;39.69442401;-0.033980953;0.186823594;11.42603608;1.876519337
7.423116132;10.3990291;-11.72060729;7.907947831;6.152912375;1.632679542;16.16303868;4.442060461;-35.91049528;10.3166291;-57.58191391;-1.439406341;1.170185154;-2.770068359;30.57538702;4.081653091;3.767284275;15.27018622;2.030814382
7.80459278;10.12220175;-27.70684978;8.24438075;4.631575193;1.151323891;14.563974;0.778742505;-46.21178636;1.45915003;-68.43687368;-3.995624771;-1.094435535;-1.134299399;27.31785207;5.098859241;4.136307478;13.79179285;0.897967365
12.61875487;8.006748259;-25.64044092;12.3389408;3.288220495;0.115697686;14.51290029;-1.916116267;-58.43279766;-0.811053513;-81.77557024;-11.92091912;-5.308452705;-2.483428787;35.02675492;3.227321767;1.940014648;8.516326229;-0.460384608
16.89396135;7.708952695;-8.561076371;18.92472479;3.335125642;-0.445921431;16.0795474;-2.659646672;-70.56590398;3.681737546;-96.6395983;-21.17917748;-9.550935717;-4.828827506;51.78552105;1.505768055;-0.257718228;3.854744963;-0.65507347
16.10943062;10.67695706;11.19412522;24.21094437;4.624833445;0.010164381;17.7110059;-2.142333178;-81.31442359;9.216741732;-111.5109882;-26.81787575;-12.52701688;-5.841795887;68.87283758;3.119407396;-0.251214788;3.698812342;0.766089967
10.60721979;14.96914489;21.71339597;24.56354902;5.689780727;1.05166955;17.74295366;-2.202392514;-90.50428456;9.604382182;-124.4478695;-26.56174775;-14.6991503;-4.766693305;76.15074575;8.649587246;2.123038511;8.596569253;2.903727938
5.4136518;17.11194761;20.04903947;19.4465718;4.966145193;1.696383751;15.96200534;-4.292696039;-98.79833916;3.710691758;-133.8484411;-22.33098694;-17.68272423;-2.800265319;69.14883798;15.6798852;5.193262139;15.6283985;4.309507672
5.681570823;15.30335433;12.8717637;12.1766982;2.154955202;1.339644821;13.69569743;-8.226177932;-106.9707745;-3.777657641;-139.4535068;-18.45651409;-22.50940238;-1.80869006;52.81811971;20.98714875;7.137729468;20.84698361;4.262006889
11.97700183;11.12875251;9.431597318;7.692600239;-1.468725492;0.316503669;12.40625716;-12.28986019;-115.2671352;-6.805421407;-142.8258224;-18.04273139;-28.40338223;-2.676691151;39.11953827;23.24613106;7.534941676;22.19509348;3.356429435
19.72926326;8.298322271;13.39233307;8.952255918;-4.079309802;-0.414059465;12.2651253;-14.65866276;-123.2847201;-3.461404599;-146.7982075;-20.46696207;-33.23409587;-4.758633238;39.92373431;23.84023356;7.466402365;20.68737535;2.895763754
23.32880095;9.524049256;20.55650723;14.74873885;-4.777603412;-0.159280202;12.17628235;-14.9106091;-130.4092205;2.366373305;-154.0761902;-22.0749342;-35.26068441;-6.767435173;59.86761672;25.21390775;8.27178493;19.23538688;3.669483156
21.12931131;14.24520325;23.90359461;20.66856408;-4.251899723;0.868639953;11.19451484;-14.33869119;-136.4105001;4.511727516;-165.7602238;-19.44305746;-34.59162174;-8.094891;93.58162017;28.46219355;10.23812647;20.34257711;5.244848729
16.82112313;19.13550449;20.8424826;22.44713559;-4.073250931;1.748126442;9.787304912;-14.78567254;-141.6577078;-0.056544315;-180.5916442;-12.36803976;-33.03264121;-9.234224276;128.5372784;32.45603645;12.42290607;24.51697362;6.397188254
15.95940535;20.91;15.8656168;19.10267187;-5.26493705;1.690149636;9.482925926;-17.01154586;-146.7018705;-8.722753583;-195.272679;-3.934106082;-32.45378778;-10.91898937;151.2603541;35.25772646;13.64736366;30.35669438;6.250242988
20.8113787;19.00985958;16.21102669;13.45600998;-7.402439568;0.752348664;11.13011279;-20.0179924;-151.5153328;-15.63841714;-205.6685671;2.466651331;-33.14309127;-12.8812351;153.2535192;36.379915;13.60523391;35.82914988;5.064302517
28.17605117;15.91588525;24.57911203;9.74934149;-9.014131676;-0.220231668;13.60371421;-21.92626141;-155.0627967;-16.69010097;-208.4110493;6.527618343;-33.61981007;-13.54978954;134.0835831;37.63961465;13.02189611;39.52604593;3.966154211
32.12741778;14.91184911;35.64042524;10.33521982;-8.907019796;-0.36143702;14.5912209;-21.64646479;-155.7520571;-12.58494864;-202.385789;11.64457156;-32.05695836;-11.15977943;101.162066;41.6790177;12.80584139;41.06399809;3.906436283
29.2147112;17.25242303;39.69963023;14.02597098;-7.245829279;0.446215804;13.06091581;-19.87215614;-152.6707315;-7.581062889;-189.5912828;21.86544997;-28.01316779;-5.400687233;67.01751434;49.4233629;13.13406087;40.72271404;4.827693833
21.49339475;21.10375744;30.54150674;17.26146483;-5.451344306;1.488765486;11.03127627;-18.50762684;-146.7854458;-5.40343081;-174.8490817;37.61079535;-22.9042072;1.875034627;44.95910172;58.78585178;13.43062851;38.95820886;5.795765618
14.74619292;23.05017792;10.80525235;17.00647223;-5.024515103;1.879642147;12.42981898;-18.99841634;-141.0593999;-6.244305861;-164.0685461;54.06177215;-18.78790494;7.650780086;43.97319286;65.86014462;13.24092523;36.23271804;5.927370512
13.54160017;20.82715268;-9.631179514;13.03705635;-6.324727598;1.346835699;19.35911687;-21.00701687;-139.0419712;-7.426773821;-161.4596265;64.19600619;-16.55526426;9.788956617;64.36458388;67.64944868;13.03861942;33.06870301;5.210687404
17.51388496;15.0437255;-20.82569643;7.926491452;-8.340738465;0.439700855;28.84538493;-22.60674563;-142.600595;-6.723653979;-167.0104271;64.4995602;-15.15311447;8.538030649;96.52314292;64.05975195;14.0083623;29.99830374;4.446523714
22.04695063;8.638299031;-19.54812754;4.941925831;-9.610907756;-0.006555498;33.43974211;-21.87887789;-150.3087001;-4.888403494;-175.9463162;58.6782342;-12.54579031;6.309495376;124.7021794;57.59767507;16.85859485;27.33564599;4.395688636
22.57587062;4.706055962;-10.38920598;5.632591469;-9.464793723;0.36425127;26.15647242;-18.59302916;-157.8372892;-4.887445687;-181.0763574;55.77317395;-7.587946928;5.892471309;135.0481238;51.25616196;20.76969613;25.05925983;4.982930776
18.58041835;4.517138246;-0.96069521;8.943810915;-8.520147377;1.135724509;6.35887086;-14.55911922;-160.4512837;-8.636095911;-177.082982;63.4610089;-1.190910911;8.472784538;123.7053994;46.55867725;23.61742845;23.06910585;5.353730733
13.78712956;7.140493263;4.241774064;12.33751322;-8.05136939;1.542838476;-18.25184983;-12.33665307;-156.1609024;-14.53789953;-164.1417723;81.57779828;4.206287252;12.90216137;99.52354688;43.35369784;23.50905296;21.65310112;4.757496673
12.60110712;10.63127451;6.209703383;13.83343109;-8.823254156;1.196467437;-35.79892824;-13.33886749;-147.3697334;-18.42560035;-148.228454;101.3667124;6.394622314;16.63067324;78.62194141;41.1578319;20.40492389;21.64034496;3.416711265
16.12619365;13.56055721;8.749634298;13.33587084;-10.40794594;0.43095593;-37.96809847;-16.84096803;-139.6610184;-17.24986266;-137.4981173;111.7858165;4.923011917;17.47294896;73.59913101;40.38691396;16.36688213;23.89656056;2.51213146
21.33302336;15.67769791;13.96368361;12.37604247;-11.54037125;-0.034271523;-25.61613427;-20.62459183;-138.2663907;-12.12554761;-136.9568947;108.4409111;1.233502838;14.90511393;84.53681094;42.07046174;14.07240723;28.45025234;3.215388923
23.94267034;17.47657692;20.23007813;12.71798418;-11.16135667;0.214575493;-7.89540724;-22.65300821;-144.4704596;-7.74643862;-145.1266661;98.0062665;-2.520546966;10.13755677;98.41485283;46.32641025;14.73838579;34.02249376;5.599501058
22.22567101;19.38165084;24.17690334;15.05403324;-9.245066328;0.895474517;4.498877262;-22.40283199;-154.4362335;-8.438720851;-155.1673502;93.9285324;-4.858133019;5.190633914;97.90196247;51.30224039;17.17142197;38.52865197;8.418644444
18.23325425;21.37658275;24.25040142;18.73126619;-6.753871194;1.30265161;6.745648533;-20.87912492;-161.403452;-14.28027594;-159.6870573;105.90537;-5.477661284;1.789329058;73.63997175;54.00436287;18.75560307;40.3210442;10.00555935
15.50532843;23.24662826;22.22022602;22.48859108;-4.842529349;0.981158601;2.318701914;-19.50075382;-159.9196646;-20.8266428;-155.6755207;130.959985;-4.766253183;0.741264621;31.33136175;52.61980153;17.5645268;39.24730782;9.550437579
15.61551089;24.95146571;21.29098072;25.40914592;-4.041512625;0.17133075;-1.127250559;-18.93726646;-149.3302067;-22.85134973;-145.9102863;153.4598857;-3.093977431;1.901388876;-11.4673323;48.29300638;13.85182352;36.67559711;7.685148846
16.92623802;26.62092309;22.92943634;27.29198217;-4.082760882;-0.393280003;1.347187583;-18.87345088;-134.2239966;-18.89856357;-135.9827827;155.0704646;-0.68760092;4.44017259;-36.52084826;44.51410277;9.740058594;34.46683381;5.90354423
16.72778332;28.19634191;25.67637018;28.29840606;-4.406656585;-0.151674374;8.113402558;-18.74237724;-121.5877631;-12.62538214;-129.5661435;128.010372;1.923743597;7.178239956;-36.09304213;44.30490178;7.478824645;33.7349766;5.351342009
14.61088441;29.1975176;27.05912428;28.39459039;-4.796677506;0.76512261;13.17287758;-18.57982706;-116.6;-9.679908352;-125.848998;81.97793476;3.638837927;8.987866883;-16.53211255;47.49016732;7.811004289;34.359007;6.023016013
13.61358262;28.98187799;26.49585179;27.22692598;-5.542176085;1.63607799;12.15478619;-19.09942929;-119.7785851;-12.79602838;-121.090429;39.29719757;3.323873591;9.298805459;7.444014793;50.53365976;9.773247739;35.49761248;6.983283854
17.67715786;27.31277599;26.04777845;24.59018249;-7.023617928;1.781492482;6.650523319;-20.87877;-127.1157223;-19.38640621;-112.6670973;21.26159358;0.905708917;8.505918599;22.79341991;49.34812796;11.9113664;36.4801988;7.302427303
27.47150496;24.66808969;28.0996645;21.04229151;-9.164845943;1.153973818;2.963205089;-23.43649964;-132.7809243;-23.73776717;-101.8567597;35.0561783;-2.006729995;7.886436327;25.1663305;42.86466929;13.65692995;37.21317706;6.810680602
38.46287809;21.92991121;32.33057557;18.01900034;-11.30408802;0.363906652;6.278989955;-25.15088528;-132.4303126;-21.87399645;-92.79497156;70.19680041;-2.808560712;8.84907368;18.81064143;34.30168546;15.58385285;37.8288593;6.038316958
43.42725185;19.71013331;35.3305022;17.17434347;-12.62878237;0.131029301;15.34194742;-24.25787224;-125.1176838;-14.82971575;-88.53845998;106.5006353;0.366656559;11.89457136;11.08748655;28.87980547;18.40954164;38.10630547;5.520873845
37.80521787;17.95940694;33.73614409;19.31060329;-12.79274014;0.665418136;22.44132598;-20.19683754;-113.0405289;-7.519547891;-87.8845965;127.4451618;7.160969803;16.06817244;6.839638092;29.73848219;21.82216253;37.40837057;5.226888782
23.65775879;16.25411435;28.07036943;23.65257905;-12.16759578;1.526109269;19.11234553;-14.19986429;-99.80452503;-4.296611769;-86.05048336;129.4308377;15.02901271;19.4556645;6.679548062;35.43786179;24.36712608;35.29997334;4.679387829
8.873598062;14.4804834;23.24962718;28.05449681;-11.50831841;2.056746107;3.116836072;-8.582736468;-88.53127346;-5.18718166;-78.87323181;121.1558524;20.90168971;20.48167437;9.099989185;41.19820342;24.58772532;32.23266815;3.607801267
2.019966366;13.20596402;24.50127057;30.1149095;-11.32457187;1.97650635;-18.94513204;-5.227763338;-80.75763211;-6.112696653;-66.86049774;114.8808263;23.22886808;19.05076596;13.1308408;42.90672705;22.37646609;29.51070501;2.418666323
6.691103438;13.30018888;31.90658558;28.54815365;-11.49053753;1.585886836;-35.63831042;-4.391769866;-76.272626;-2.804785039;-55.25739121;116.9280889;22.80983536;16.60151333;18.66910394;40.54722111;19.23029518;28.40929264;1.950703437
19.5264997;15.10996853;38.74045313;23.95651522;-11.40231876;1.424548842;-38.35379535;-4.706990055;-73.54517002;5.175041806;-49.65741384;124.3621826;21.82069859;14.98602803;24.68576293;38.13534739;17.08080098;29.17546695;2.706983478
33.07671053;17.98461517;35.99366743;18.50713268;-10.52311248;1.729809778;-26.89150052;-4.307533842;-70.43679713;13.94626474;-50.75107879;129.2970371;21.94447948;15.06847811;27.98844517;40.15458547;16.69513418;30.83800237;4.313958784
40.97288056;20.67577452;20.01546556;14.70546927;-8.853095324;2.21483487;-8.992852919;-2.179468047;-65.10805623;18.7726476;-52.93812459;126.3432214;23.20474546;16.19690609;24.65804679;47.43903836;17.0831113;32.03644072;5.778392325
41.44290061;22.31687721;-3.103540921;14.0234788;-6.959296542;2.367456284;5.430531851;1.255987394;-56.97418041;18.32792869;-48.49015084;116.917576;24.40287074;16.97159425;13.33711013;55.94820559;16.47094376;32.10902924;6.346059031
37.02797647;23.09562658;-20.6988702;16.2178004;-5.578744501;1.971846286;10.80179122;4.649813927;-47.25293313;15.88987289;-34.15332119;107.4143742;24.60475161;16.61258561;-2.755259416;59.51062126;13.99078742;31.41334006;6.148096853
31.56988483;23.96787947;-22.42187401;19.71283751;-5.128959384;1.345635088;8.485932443;6.80871791;-38.53912986;16.35421174;-14.65680517;103.4654197;24.21874165;15.698686;-17.44746932;54.37748904;10.57127037;30.60328973;5.977971942
27.37256006;25.64771097;-7.983829864;22.72894596;-5.480229355;1.05749676;4.26313787;7.489685715;-33.32620722;21.72831003;0.167867021;105.3674495;24.64706372;15.60146598;-25.96176012;42.01443291;8.213831949;29.65793718;6.368927798
24.59349208;27.82284082;12.58477358;24.36825224;-6.10173174;1.385469616;3.319992716;7.381191354;-32.2654807;29.15457511;2.714399964;108.2361937;26.85278892;17.10965163;-28.32620129;28.0714074;8.283813467;27.77577283;6.866390152
22.54458241;29.37956803;26.56061591;24.94303601;-6.426301878;2.028460598;6.775147995;7.422504951;-33.45282909;33.27701856;-6.437518707;106.2595931;30.21205562;19.4984925;-28.72312607;18.54633372;10.33448943;24.41267375;6.287208167
21.009096;29.47945951;27.96991524;25.39097008;-6.186927741;2.354868883;11.91574414;8.061912063;-33.5271408;30.89698307;-18.86309594;97.22441676;32.77806548;20.94938223;-31.19072459;16.21054363;12.51326007;20.49220291;3.856885046
20.20635663;28.47304161;21.27367245;26.27400574;-5.567257798;1.973707534;15.17445296;8.982369564;-30.03388459;23.8178502;-24.80312244;83.73716256;32.7952081;20.04442589;-35.51943226;19.80772265;13.19169434;18.39998323;0.222388878
19.83614929;27.70056301;16.53797735;27.13889933;-5.140217654;1.107540143;15.04889903;9.38751806;-23.359126;17.37697156;-20.62304778;70.64153619;30.14797913;17.07839345;-37.26250888;26.06043645;12.3770368;20.34428139;-2.684823104
18.73527737;28.22481139;20.41713631;26.72719453;-5.633690656;0.418746529;12.81532755;8.545100765;-16.627039;15.97696275;-11.18201284;61.20669986;26.46522114;14.02718552;-32.20749254;32.35066262;11.66708922;26.25515067;-3.008257069
15.94847914;29.58713326;30.62044717;23.87890147;-7.579330419;0.435993155;11.02459794;6.207041586;-13.41188865;19.55816201;-5.281019182;55.229888;23.79368896;13.13068035;-21.48756045;37.84879744;12.80713329;33.12045737;-0.497154331
12.25973966;29.78798756;38.33892938;18.45771689;-10.95047763;1.093246982;11.42038313;2.725056879;-14.89310485;24.06661035;-8.092527814;50.14173555;23.01867335;15.22730118;-12.53091995;42.66749856;16.12924426;36.68293185;3.113639695
10.35355152;26.69306772;36.21007813;11.61904538;-14.97991946;1.794604488;13.91783601;-1.087925274;-18.70941638;25.37997504;-16.91148872;43.59297487;23.39681706;19.19081136;-14.35271084;46.49417138;20.22158609;34.43528048;5.303465793
12.85722247;19.79986598;24.77767955;5.238039204;-18.35376206;1.944654145;17.05083226;-4.222859892;-20.5868314;23.08175178;-23.66747397;35.09605481;23.52056575;22.88056987;-30.59;48.39191814;23.06029472;27.56759887;4.641568494
19.6608352;10.90088434;11.97453661;0.924873321;-19.79886731;1.46695195;19.14958175;-5.791713692;-17.63442007;20.67020397;-21.8893454;25.60139005;22.72847755;24.74679749;-55.9255625;47.98473675;23.56374356;20.1830429;1.820603948
27.02745378;3.045313465;6.393247572;-0.684017384;-18.78224962;0.849662197;19.31999894;-5.357458155;-10.74777353;22.06445314;-12.11741116;15.93749323;21.61613238;24.73688894;-79.05810165;46.61063636;22.23;16.28214367;-0.998896557
29.80065192;-1.393875855;10.45261841;0.06765183;-15.8602149;0.688376506;17.84205005;-3.177771892;-4.094718242;27.66736443;-1.226376961;5.910238138;21.21155364;23.8387801;-90.1354549;46.88868978;20.41409437;16.90126459;-1.971335293
25.34098338;-2.016340147;19.36226123;2.428517735;-12.36864176;1.14732506;16.07880641;-0.193350442;-1.885954402;33.68477844;3.577550285;-5.089253254;21.69466618;22.83336113;-86.9620138;50.68069141;19.03241177;19.71285737;-0.976481085
16.0352126;-0.108910842;26.36690571;5.870877124;-9.594119941;1.824187758;15.96966931;2.343515156;-4.844892797;35.45469686;0.79467129;-16.77990167;22.01030837;21.49809909;-75.37622993;57.16624445;17.9226444;21.34917747;0.495425308
8.07421535;2.80062602;29.07931146;10.3024474;-7.984208994;2.129323752;19.0193109;3.482115125;-9.191656636;31.83933551;-4.458964439;-27.52291706;20.87600712;19.02025293;-64.01162128;62.95871257;16.37602023;20.42285897;0.807535663
7.159543293;6.194825152;30.90651146;15.77819178;-6.979355992;1.823668663;24.95461406;3.090775573;-9.131718177;26.63306729;-5.246201097;-35.36790791;18.28921469;15.19810502;-58.09217015;64.5241034;14.20814412;18.66554694;-0.339094499
14.4049528;10.56949731;36.32658455;22.03601944;-5.602807431;1.224370733;30.87022146;1.934320138;-1.147581191;25.50659147;1.10172793;-39.75209829;16.01952562;11.21867593;-57.24985768;61.05569607;12.23756104;19.27347363;-1.703081559
25.66172854;16.35361048;44.71844359;28.2789788;-3.351616043;0.899272938;31.95725728;1.227533612;13.07573638;31.01818096;11.02033722;-42.27696566;16.38287484;9.134163935;-58.47302951;55.34548004;11.65177467;23.97643592;-1.720708143
34.75703363;22.90923742;49.08524878;33.38850858;-0.676225489;1.139128408;24.1117604;1.931799794;27.33135737;40.09532649;18.4821646;-45.76611651;20.17376081;10.33444078;-60.72804952;51.75076871;12.85747069;31.40880725;-0.018095302
37.97821084;28.64462042;41.67994666;36.41145864;1.345217057;1.692849474;7.138897343;4.234553129;34.7772727;46.36936616;20.89731833;-52.33271145;25.55202091;14.27912081;-66.57667824;52.80878777;14.95723474;38.15045318;2.157173894
36.23292608;32.16688736;22.00092477;36.98785724;1.876062841;2.003211345;-13.79334095;7.511461189;32.28897758;45.51631276;21.58364293;-62.0393053;29.03444911;18.62959723;-79.22325312;57.266293;16.43340289;41.43294766;2.984047299
33.39684997;33.37357486;-0.197797231;35.46585174;1.016627774;1.721548139;-30.113542;10.73549715;22.25629939;39.02316532;26.3441058;-73.17045222;27.99750639;20.78663587;-97.96437036;61.15585074;16.46672537;41.09540521;1.670683305
32.58897246;33.40667134;-10.52900923;32.66812212;-0.257044899;1.030197858;-34.56477207;13.02681379;10.73276195;33.03720842;37.13928471;-83.73115803;22.74206455;19.66463621;-116.7885349;61.00118523;15.66399843;39.14973542;-0.810354033
33.70386506;33.45260203;-0.556187896;29.45818211;-0.868907077;0.483076119;-25.7312335;14.01623637;3.466834476;33.18630908;48.77441165;-92.82875996;16.41790911;16.33039633;-128.1611608;56.4636739;15.45909007;37.51845951;-2.514262813
34.184867;33.47499645;24.99895335;26.3280498;-0.493441255;0.514770854;-9.112625484;13.88934162;2.691308579;39.82494644;52.17529432;-100.8873692;12.80708743;13.06801442;-129.1660767;50.28191135;16.66766286;36.11454508;-2.164677985
32.03479849;32.07203353;50.57510367;23.21635978;0.223705884;1.063706283;6.287318899;13.19616978;6.723679794;47.89236519;42.06233148;-108.7897308;13.70448516;11.69146576;-124.5493734;45.72265385;18.50389226;33.00886473;-0.230477709
28.11640254;27.63963829;60.29809428;19.69482419;0.253505943;1.64206383;13.64639605;12.59181952;12.21701463;51.58704068;22.61690255;-116.9175162;17.93761936;12.44862771;-123.3976921;43.87533341;19.01992074;26.42979234;1.470112064
25.57240384;19.82226865;48.7759896;15.50257566;-0.916745855;1.776250103;12.31914887;12.61391836;17.04211783;49.76210557;5.886914581;-124.9174818;22.68228313;14.25350764;-131.5662727;43.14114781;16.68128126;16.649581;1.269812266
26.91013615;9.958652885;23.96640479;11.15702168;-2.822977373;1.413374191;7.38295854;13.5237378;21.59858287;47.11542218;3.492380661;-132.1507142;25.84395076;15.83612388;-145.9957332;41.21188321;11.75275595;5.990312734;-1.033881567
31.45842826;0.143337628;0.262598257;8.161861864;-4.377737219;0.934904456;5.285815456;15.22986542;27.79574623;49.76271733;17.90129414;-138.1428186;27.48388455;16.72217797;-156.0799109;37.56377754;6.283297226;-2.986978721;-4.123762725
35.57904157;-8.216233912;-12.35859161;8.414064698;-4.729097723;0.785188175;9.000372844;17.34442804;36.77510277;58.7570301;40.29082338;-142.5628415;29.20270468;17.27705538;-151.7415649;34.05192423;2.665591952;-9.326817429;-6.314863128
35.5363923;-15.03403118;-14.52302405;12.90668266;-3.906325225;1.067934996;16.2731886;19.39176793;47.28439366;67.2832532;56.96723544;-144.9880655;32.19380812;17.98722873;-132.2010373;32.9833907;1.96341178;-13.80385683;-6.847417045
30.55551066;-20.8564152;-14.62870815;20.49726783;-2.733114509;1.476226224;21.9975303;21.07074144;55.97145711;64.58800814;59.49080269;-145.0695025;35.77561479;18.81086127;-108.3146086;34.46187384;3.375592995;-17.31110663;-6.22745239
23.4485694;-25.61665648;-20.15868056;27.81185033;-2.11324881;1.601889393;22.53161818;22.37239875;59.38076902;44.21925284;50.60304904;-143.22372;37.70012387;19.23824561;-95.98266272;35.63127543;5.195832754;-19.25227015;-5.448319513
18.35078342;-28.14972847;-30.77952829;30.83244776;-2.304695708;1.321472549;18.46456155;23.41844054;56.2501042;10.31484984;41.31778817;-141.1375075;35.93238168;18.91647249;-105.0203097;32.87132506;6.339524441;-17.72477035;-4.932328545
17.59859977;-27.05965618;-38.81516644;27.51338467;-2.773387264;0.898437374;13.81912863;24.12031356;48.5807958;-23.26357886;41.52222355;-141.1819643;30.33687096;18.10952035;-131.6492315;25.32985657;7.079885362;-11.51287554;-4.212417477
20.38831265;-22.19138206;-36.16997759;19.70899234;-2.703347938;0.717716637;12.61997366;23.97733994;40.81846305;-40.89252849;51.54389163;-144.7264503;22.86130762;17.4512622;-160.3689251;16.75321862;8.417132539;-2.000608362;-2.607779365
24.11242323;-15.27176589;-21.45896257;12.73780227;-1.692640758;0.914013658;15.73413029;22.29947879;37.64059704;-34.81057076;61.3296327;-150.6053424;16.16215312;17.20586148;-174.1368617;13.72407828;10.76459866;7.049775301;-0.177425114
26.85020104;-8.947183989;-1.330416998;12.33539849;-0.04638085;1.247556001;20.43343968;18.80925989;41.57955018;-9.680921483;57.88701797;-155.3242116;11.92067241;16.81611552;-165.6908385;21.26645564;13.23586217;12.03875981;2.032323803
28.61062578;-4.904013713;14.79974259;20.72207206;1.538332038;1.340787444;22.80601453;14.18792544;51.70411469;20.88842722;35.26833371;-155.3873378;10.22001953;15.31;-142.0533189;38.98352272;14.23789339;12.34003906;2.75801077
30.32681394;-2.680295422;21.8438853;34.5371841;2.573105591;1.047315917;20.93980343;10.04051864;63.98738387;43.05286071;-0.419597107;-150.224284;10.27275829;12.31279768;-119.2697623;60.61865335;12.86524369;10.85080804;1.639725525
31.88668836;-0.267904327;22.03383179;46.451471;3.129124832;0.601497528;16.4037659;8.120268183;73.17012732;50.44065623;-34.53493303;-143.2922554;11.55977996;8.75153517;-111.4152279;77.39755099;9.847598642;11.60406039;-0.347159829
31.45615551;3.941086906;21.75343297;49.76720773;3.66418258;0.40547948;13.05457901;9.243591403;75.23960369;45.97641114;-53.10371111;-140.0754786;14.19420747;6.501597045;-121.706288;82.7821745;7.180413571;16.36249814;-1.601774794
27.06645539;9.526652887;25.47124842;42.99076952;4.528586688;0.652345554;14.22430807;12.66868424;69.33699042;37.61892405;-50.99637011;-144.1784744;18.2253444;7.118650351;-141.5937499;75.48324699;6.705972956;23.09524719;-1.181804932
19.10121172;14.16713976;32.17281884;31.05840494;5.616195547;1.138838352;20.33327376;16.47081567;58.12870343;32.03859204;-33.71520562;-154.4780922;22.73939536;10.63771526;-157.7351175;59.18272475;8.792504089;27.64756939;0.436034013
11.17395348;15.44655349;37.0675308;22.08541535;6.462191911;1.445192674;28.40637212;18.74629556;46.40446923;30.95346255;-12.4864327;-165.7144844;25.88068876;15.43169048;-161.2971146;39.90156386;12.13372572;27.12441649;1.777027447
8.121727845;12.80256278;36.54912555;21.74715907;6.669910115;1.317769642;33.57271211;18.83529891;38.6095265;31.98386697;3.026041762;-172.2445554;26.04083253;19.26518756;-152.9599701;23.25097743;14.72786423;22.02996702;1.608465933
12.43852931;7.956009031;31.71403737;29.28327504;6.261838535;0.900735323;31.52580138;17.69028981;36.66540414;32.17602403;9.216036821;-172.0802485;23.26803874;20.70054838;-140.6920319;13.09734276;15.1754775;15.38676529;-0.06108997
22.08463341;3.502138991;27.36779973;38.10219774;5.641702392;0.601690217;20.68448426;17.11726799;39.32140962;30.76803541;8.057760777;-168.016764;19.58208637;19.77164534;-132.778226;11.44652592;13.32912992;9.826473806;-2.051053466
31.67991281;0.945290131;27.67592722;40.65431989;5.221781869;0.714141292;3.189908181;18.43956974;43.36974472;29.19085295;3.452672194;-164.9980349;17.73754069;17.53056013;-131.6884637;18.3752965;10.02067048;5.458491663;-3.036718913
36.31478005;-0.10767209;32.56214355;34.05278064;5.069224708;1.144363561;-15.61581512;21.54850536;45.87962942;29.04440894;-2.000988323;-165.9657065;19.32014195;15.04581259;-133.1495481;31.45261286;6.368469618;0.508424474;-2.618361181
34.97508015;-0.987163376;38.07898641;22.28574339;4.892030021;1.494528283;-29.15637318;24.99649341;45.9585805;30.36930414;-7.564492511;-169.6735015;23.68056645;12.80303224;-130.5226876;45.47784357;3.328513943;-5.966700581;-1.530776829
30.85122755;-2.25284911;40.23655556;13.34318439;4.364929967;1.426812983;-32.4601878;27.00769176;44.92126956;31.80599885;-12.81235896;-172.2377674;28.53225959;10.92647192;-120.6612756;53.87309196;1.66408587;-12.02288309;-0.881536136
28.38677084;-2.916289717;38.63775145;13.36011643;3.487775041;0.975750703;-24.69076027;26.63747944;44.90244215;32.19556264;-16.27116278;-170.9731423;31.65602894;9.756996322;-106.6676909;51.89046275;1.968640719;-13.63039645;-1.144482994
29.5996632;-1.366897455;36.53238412;22.11131685;2.64926971;0.523859166;-9.902232898;24.27981004;47.05373503;31.83993671;-15.88394759;-167.0919148;32.286074;9.968564608;-95.66508761;39.84584074;4.377854134;-7.866820647;-1.7930001
32.69400035;2.859339569;37.24791279;33.18147582;2.342482225;0.463039612;4.826291202;21.27321216;50.69610772;32.14806067;-10.85649897;-164.8379141;31.14662459;11.93773574;-93.5737732;23.7659332;8.126769362;4.280412108;-1.840157872
33.91716938;8.177411759;40.32133265;38.64449293;2.788896965;0.848855855;13.19433129;19.01781783;53.99894096;34.0922743;-2.965719311;-167.7392954;29.36511927;14.97374012;-100.9646391;12.25593512;11.53795917;18.06684378;-0.749024232
30.86228019;11.88732511;41.02389369;34.76070913;3.7972115;1.357816519;13.22812907;18.27674703;55.55715948;37.08746317;4.164568748;-175.2110689;27.43975357;17.34885267;-112.9414741;11.21993229;12.80981695;28.06575069;1.099324411
24.35561055;12.23892823;34.01706016;24.5293527;4.961287571;1.580092773;8.181423552;19.05723753;55.57138834;39.47103387;7.478386857;-182.5054796;25.23192862;17.41976975;-122.7689719;20.02590416;11.21568122;31.54361112;2.73921224
17.51531244;9.832890054;18.20679378;15.35325546;5.999698193;1.378074083;4.011285313;20.95388488;55.69852782;40.17027107;6.693813804;-184.1841406;22.83084134;15.03931637;-126.2248042;31.99751517;7.750155666;29.34620904;3.389449522
13.10379149;7.076274625;-1.327910855;13.6860588;6.929052469;0.988943427;5.102936148;23.534114;57.71;39.93618347;4.478615381;-178.297973;21.20321113;11.97286712;-123.4657277;39.03765924;4.524682158;23.90281217;2.959457563
11.62643966;6.100770622;-16.14780503;20.6157427;7.932525465;0.789571835;11.32369416;26.45648478;62.01455243;40.85426208;4.384409235;-167.8685812;21.7207682;10.73098606;-117.4998199;37.06879934;3.218954801;16.63308872;1.912776059
11.66911635;6.920850909;-19.9889875;31.43369343;9.068681945;0.949284399;18.57594642;29.35700972;67.17059578;44.42242405;8.104334212;-158.5437526;24.81190215;12.60208006;-111.1271554;28.32364452;3.784017712;7.425949295;0.729431642
11.76331711;7.430744735;-12.84538736;39.18897028;10.10543392;1.290153138;22.33471858;31.76453866;70.73368897;49.86674951;14.12984283;-154.4571055;29.01127608;16.50255583;-105.1637588;18.94123809;4.509534329;-3.430097656;-0.46485694
11.74619515;5.258123693;-0.641735617;39.41333539;10.64236393;1.474288062;21.28981429;33.22266658;70.79631393;54.27158149;18.78618023;-155.6590556;31.5384076;19.71734328;-99.22489929;13.94281272;3.476496941;-13.20612761;-1.7791541
12.33054468;-0.103843302;9.000916825;32.65525992;10.42150258;1.333574508;18.1443169;33.52862769;67.13997345;54.58146471;18.8474641;-158.9475493;30.23953407;20.03752329;-93.78161382;13.60318803;0.216467054;-17.31076917;-3.158017213
13.58071655;-6.686285048;11.58142365;23.36855913;9.559919912;1.030397261;16.99725728;32.84100624;61.28537007;49.90960628;13.8359024;-160.9681866;25.40212614;17.54253247;-90.96066212;13.96070767;-3.838134527;-12.6981696;-4.19537871
14.18654727;-11.44018447;7.74646553;16.42414072;8.507040123;0.901082222;19.62644323;31.52075824;55.5353149;42.27567555;6.4333653;-160.6946645;19.84428456;14.48047153;-92.81111933;10.78706005;-6.531172843;-1.215690939;-4.414902321
12.60826606;-12.44635412;1.635424046;13.98315019;7.761498865;1.131356349;23.9328459;29.83541828;51.72128454;35.16520003;0.819322581;-159.2922566;17.00621034;13.28980166;-98.433949;3.563108841;-6.802836842;10.56202443;-3.761438224
9.108824781;-10.15947593;-2.578116858;14.78161182;7.569163233;1.568454599;25.93933934;27.80132275;50.40475952;31.06712325;0.136305037;-157.9511688;18.45050415;14.44493041;-102.9834141;-3.886701532;-5.588161736;15.60603159;-2.788570095
6.472242353;-6.835458296;-3.170638824;15.83503522;7.815386075;1.846283816;23.59973543;25.3101395;50.8527944;29.92548587;4.74318109;-156.1222652;22.75048344;16.03484471;-100.3820276;-6.60219579;-5.010277005;11.55044039;-2.288850997
8.193640975;-4.829834852;-0.959870969;14.87429409;8.15145845;1.71003418;18.98602889;22.40428992;51.61106581;29.6281251;12.25936812;-152.0255155;26.65958476;15.51822082;-88.34338987;-2.823326346;-6.564095647;2.202565736;-2.653529718
15.36362214;-5.23267886;2.280956992;11.6609911;8.222443271;1.2437072;16.73600406;19.40897459;51.26638918;27.98678099;19.18996883;-144.9284165;27.59461701;12.16245443;-71.71084677;4.207984319;-9.865418874;-6.086143588;-3.541260026
25.06143746;-7.742260799;5.314486872;7.550182457;7.83036175;0.794811618;19.92847966;16.75970677;49.05272385;24.53812263;22.9821618;-136.7936086;25.41208318;7.977287248;-60.71153311;8.572023234;-13.0352007;-10.07974685;-4.180124416
32.10964079;-11.44832361;7.721181955;4.095685876;6.968737075;0.668338626;26.98136968;14.6667837;45.12479653;20.77969517;23.23823192;-131.3242766;22.11197247;6.185930626;-64.47519282;6.336807615;-14.34203961;-12.149112;-4.047746403
33.1292494;-15.50906699;9.290705061;2.000598914;5.780306865;0.869515376;32.52115927;12.93997152;40.44778284;18.80903832;21.47511425;-130.8779063;19.89079315;8.436917697;-84.22425038;-1.160130809;-13.62611962;-17.08531382;-3.314907115
29.52277476;-19.13880675;9.609491809;1.098806379;4.511527347;1.123994239;31.83133049;11.16991166;36.33886407;19.58705748;19.78183785;-133.9353069;19.32691484;13.16576627;-111.4231746;-8.095151391;-12.25765996;-26.06029305;-2.648657037
26.56;-21.30062175;8.438997267;1.037499798;3.472354928;1.146135995;25.23276305;9.131794042;33.8263955;22.21875133;19.36957318;-135.6641989;19.24508686;16.63992129;-132.761592;-8.516066621;-11.73098607;-33.67413472;-2.566140458
28.95396841;-20.91970943;6.406541724;1.825355425;2.956191408;0.901473526;18.45692121;7.05074556;33.14167097;24.71616807;19.96408374;-131.5541374;18.22145835;15.93431522;-138.5987753;-0.996546622;-12.23834317;-31.69897593;-2.953981444
36.5071799;-17.80915833;5.045840253;3.730947504;3.107922997;0.62311809;18.21196783;5.471888786;33.67058187;25.52812372;20.33491242;-121.2987638;16.19845603;11.34687781;-128.6572966;9.940614324;-12.57259593;-16.99350752;-3.214383504
43.68324796;-13.47570786;5.823891545;6.72270176;3.815150138;0.575908189;26.24;4.831306833;34.44801862;24.62492139;19.45331891;-109.5868453;14.62678284;6.140039063;-110.8273178;16.74272434;-11.46398901;3.455626679;-2.902502314
43.81829706;-10.70360394;8.86553737;10.04771013;4.73229218;0.796249305;36.77804319;5.104829899;34.88328584;23.39273224;17.37230822;-102.8489264;14.97799262;3.751837577;-94.41955865;14.00976689;-9.095896242;15.82391473;-2.239510138
34.6862989;-11.77505716;12.55594537;12.35439608;5.465239106;1.053610495;39.93940585;5.851077199;35.1721787;23.52996243;15.19301528;-104.3691493;17.06254842;4.847756137;-83.60188184;2.274009842;-7.32364776;9.586008799;-1.98468476
20.74688018;-16.58918452;14.55876813;12.26048989;5.803583002;1.068569916;28.88682945;6.60676529;36.03537457;25.79573814;14.20588096;-111.6551149;18.85858634;6.812697737;-76.32233382;-12.21132843;-8.270699051;-13.48204059;-2.751070997
10.00534828;-22.39586609;13.57309296;8.962509411;5.823327444;0.78123786;5.475790085;7.263586676;37.94714606;29.44093916;14.91742614;-118.2335637;18.20251967;6.21532608;-69.04188986;-21.44542391;-12.47537511;-39.46296298;-4.394338226
7.920814864;-25.71301028;10.44379901;2.59298952;5.7753913;0.417048624;-20.05296997;8.070172994;40.47588432;32.6165506;16.7163962;-118.4851319;14.90679854;2.140874377;-62.34354169;-20.70059753;-18.24338867;-52.5071576;-6.069328869
13.36453361;-25.08700812;7.678814136;-5.680336348;5.858164823;0.28608174;-35.36362958;9.25973515;42.33434155;33.45394598;18.37941947;-111.692129;11.30211215;-2.611022315;-61.64492628;-11.35934346;-22.85539038;-47.32594928;-6.942606943
19.96688882;-22.39399573;7.664313342;-13.72962795;6.080712871;0.500106946;-33.85353246;10.67542858;42.19403609;31.18898477;18.93588994;-102.1674842;10.46714637;-3.737476714;-71.77927385;0.074350305;-24.65431478;-33.57562098;-6.924460613
21.63617328;-21.39718106;10.89448893;-18.81596021;6.34422345;0.868374577;-18.48237994;11.79113308;39.67459524;26.72312449;18.17663219;-95.55178109;13.4794372;0.65097637;-90.26027464;5.979869412;-24.24037363;-27.93505322;-6.733052841
17.48839658;-24.57375316;15.53916584;-18.44492839;6.659152471;1.068703083;0.865710385;12.1567093;35.72376561;22.28569673;16.48330306;-94.4120202;18.06844099;7.786060595;-106.0854136;2.116326783;-23.75862589;-39.93846439;-7.201434541
11.99863531;-30.84384018;18.68892775;-11.68814756;7.263862315;0.937595973;14.19964102;11.86417133;32.05682488;20.28353584;14.29948042;-96.66075002;20.05198176;11.86746825;-106.6572658;-9.993008173;-24.91896929;-63.29661485;-8.450376308
10.41990886;-36.24535791;18.41426406;-0.3264582;8.473011051;0.614898748;17.36193906;11.55396509;30.07281349;21.89040818;11.8556664;-97.82731377;16.62493521;8.567910101;-88.08936699;-24.01756541;-27.47867366;-80.33882495;-9.710039063
13.72281739;-37.14537709;15.2135368;11.19455061;10.33;0.412863218;13.19695834;11.87195809;30.0830179;26.22352921;9.422823405;-95.02564603;8.88145323;-1.141370546;-60.19079668;-32.44351857;-29.48037717;-76.34946666;-10.00249927
17.74654314;-33.31437718;11.83534346;17.55990612;12.35875617;0.531095269;7.9347117;12.82016288;31.41158744;30.79;7.731852484;-89.23028708;1.391388128;-11.11728941;-40.80441283;-30.78331131;-28.97378935;-51.98735693;-9.092459921
17.44936205;-28.14905277;11.50930284;15.49150744;13.69267219;0.876809604;6.189349978;13.62019639;33.18801268;33.16270685;7.909260258;-84.10131131;-1.037045765;-14.34;-42.74080345;-20.02451389;-25.6602724;-23.16313107;-7.815842752
12.413445;-25.69634454;15.63273326;6.002286969;13.58202464;1.150376445;8.385551342;13.31472843;35.08347499;32.90575508;10.69393179;-82.57689228;3.044346052;-8.18935101;-63.3163178;-5.937852074;-21.02972482;-8.101463717;-7.412991751
8.345424108;-26.95522438;22.36761175;-5.769961603;11.95156024;1.114019324;11.91416419;11.66770824;37.34159981;32.31420041;15.48786689;-84.2321735;10.6081734;3.428788957;-85.393089;4.398246632;-16.96513103;-12.2927683;-8.394835459
12.65278383;-28.73664546;27.184793;-13.48363265;9.578289501;0.799289785;14.23246051;9.573768493;40.1303153;35.09282167;20.19304019;-85.58460785;16.44396327;12.8655194;-90.05413902;6.857899063;-14.17687174;-24.22;-9.949402803
27.50036793;-26.31090873;25.32395074;-13.58676411;7.696113786;0.471371159;14.97679643;8.512286997;42.89197195;43.50935818;22.30280997;-82.95554414;17.0838447;14.34324918;-71.45;2.72138105;-11.9298031;-25.91151528;-10.48837015
46.39362259;-17.79909246;14.91925896;-7.632334977;7.24995407;0.392156844;15.57211001;9.369952293;44.4027222;55.87133342;20.64734584;-75.42164748;13.29490842;8.093240284;-41.95540589;-2.30122995;-9.258703995;-9.683833052;-8.954347785
57.78374002;-6.564843605;-1.138509042;-1.071744876;8.299623656;0.601335487;17.24748962;11.55858668;43.61902205;66.31802795;16.45279846;-65.48590652;9.233942118;-0.11784163;-23.03298971;-1.970155557;-6.413870063;13.36007813;-5.803861126
53.38668113;0.695836957;-16.10070151;0.859453515;9.989817026;0.906573108;19.60765443;13.2242671;40.63796659;67.56081111;12.70953462;-57.11703746;9.020019531;-3.582128378;-28.59723899;6.170831126;-5.007880228;21.16742682;-2.788320465
34.72056713;-1.043578301;-22.95743184;-2.721265949;11.10996205;1.074570502;21.06143742;12.52048943;36.9044572;55.16737439;12.11566726;-52.92562663;13.48121858;0.289671298;-53.95840672;19.01879563;-6.540677122;-0.600796423;-1.636893716
12.46158027;-10.94960373;-18.78246172;-7.345406291;10.85721835;1.034049822;20.48859191;9.040444832;34.36759837;30.72598424;15.06784912;-52.71986561;19.59321346;8.312311071;-79.25122353;29.98364558;-10.5834664;-44.22115467;-2.682006706
-1.133827144;-22.42108728;-6.975248534;-6.355822401;9.290172215;0.904934561;18.39183202;4.299553319;34.16179215;1.743429655;19.26499817;-54.29838567;22.91703787;14.33477257;-84.76218921;33.48863453;-14.40643463;-82.42159603;-4.557268762
-0.905175053;-27.63305004;4.440219853;3.866121282;7.201598578;0.84369871;16.40293488;0.836299147;35.82407563;-21.84779598;21.30368093;-55.4474466;20.99723707;14.0809525;-66.03809454;28.63421599;-14.69274954;-87.15764871;-5.244920687
8.158713479;-23.17090422;7.730884996;20.45895028;5.552640195;0.870828784;15.67557561;0.546623943;37.67164407;-32.55816758;19.09416899;-55.34356654;15.06747011;8.194281412;-36.89324112;19.30717201;-10.13136591;-50.81102895;-3.657120606
15.64855963;-12.49742159;0.418564797;35.20676943;4.888800065;0.855365164;15.77221293;3.456215782;38.05642116;-28.78140127;13.28024015;-54.41144328;8.909157101;1.335871037;-18.26007813;10.71609087;-2.757277754;6.600558529;-0.505755775
14.1815943;-3.44439915;-13.24587523;39.75105422;5.114390501;0.669196894;15.14206204;7.794702893;36.52898636;-15.0230906;6.64430114;-53.1998894;5.990695239;-1.593974758;-22.16560045;5.179193467;3.206768867;50.24311858;2.206994476
4.741865005;-2.719275964;-25.54079271;31.3156434;5.702809474;0.350277322;12.72419259;11.24125023;34.03770112;0.8594364;2.062065162;-51.59810427;7.21138568;1.059458675;-43.66808891;0.672492741;4.239904266;54.1394896;2.651844592
-5.051456844;-11.53937526;-31.01766007;14.81292124;6.111291428;0.099438078;9.10545432;12.35895405;32.0695719;11.5912197;0.633214546;-49.13343248;10.82938701;7.092994254;-66.59226076;-6.554855999;-0.072064994;18.37592852;0.4502574
-7.78783975;-25.38288933;-30.4510326;-0.298861702;6.074707953;0.096964646;6.07146509;11.18913874;31.46025956;13.49994117;1.321445649;-45.86214874;14.24893646;12.72293225;-77.38641608;-17.447166;-6.970491201;-32.34862134;-3.159242268
-2.277037318;-37.56056211;-29.91216452;-6.259715412;5.610532817;0.308631056;4.926477403;8.728543236;31.80840554;7.441475877;2.120736048;-42.72534511;15.93744626;15.50025249;-75.08910623;-27.72185482;-12.76165085;-66.90857806;-6.283624645
6.072740358;-43.58056308;-35.6133247;-1.953637031;4.82016762;0.477038232;5.171070842;5.909365224;31.89682975;-2.315459985;1.593281326;-40.79749475;15.93634054;15.45899462;-69.38873092;-30.15174146;-15.49135874;-68.72972068;-7.648675464
10.28583038;-43.15319246;-48.58147069;6.877626108;3.712916797;0.329655345;4.852577006;3.005557837;30.72111129;-10.39655531;-0.444765394;-40.04168525;14.88604588;13.95694231;-69.40860281;-20.29;-15.93640148;-44.62805397;-7.245355545
7.568087018;-38.95318718;-63.49888804;12.12346992;2.214029883;-0.171361292;2.360865168;-0.109172443;28.30175917;-12.78473906;-3.356467395;-38.83322141;12.82740045;11.75390951;-73.87581107;-1.171696862;-16.28640618;-16.62179785;-6.014494012
0.903801464;-33.83316664;-72.78620973;9.10586207;0.326475314;-0.766149705;-1.952718603;-3.248335079;25.69911563;-8.5393669;-6.491376999;-34.95263507;9.097357624;8.344628769;-71.84889685;17.23653391;-17.8235327;-4.530996362;-4.993024483
-4.392195591;-28.98022078;-72.72186712;-0.46831201;-1.730805828;-1.092518772;-5.886233181;-5.553905174;24.29627828;-0.107263112;-9.483821832;-27.436892;3.441753141;3.131017743;-53.57791836;24.22454715;-19.64742216;-12.85151039;-4.644345888
-5.623027593;-24.16602913;-66.60802548;-10.26563778;-3.56723699;-0.980653107;-7.253788881;-5.950555065;24.92097803;8.01874769;-11.91909799;-17.78887052;-2.826796262;-2.894400347;-21.77264529;15.95464039;-19.47578362;-30.55581332;-4.783924386
-4.609743883;-19.2171135;-62.2986714;-14.13257516;-4.845545874;-0.593227208;-5.905598717;-4.081911903;27.38872329;11.79660867;-13.04767445;-9.417206362;-6.981464536;-6.878357753;7.273909564;-1.320073242;-15.72423859;-41.9312694;-4.956936071
-5.10204338;-14.95498333;-66.01535137;-10.23215548;-5.519244489;-0.287904881;-4.064612958;-0.881259141;30.65575588;9.98138064;-12.20648788;-5.557582911;-6.575591847;-5.899093759;14.76287045;-15.30697766;-9.022104036;-38.85993906;-4.828078588
-8.487598164;-12.71003906;-77.48636294;-1.649268195;-5.882498098;-0.321472042;-4.5712817;1.8374391;33.35512216;4.801515637;-9.755418423;-7.176371595;-1.458258431;0.516488984;-5.881713383;-16.37998563;-1.899129584;-25.41488547;-4.290741466
-12.0641954;-13.07173758;-90.39303067;6.494236171;-6.365040587;-0.651821901;-8.484017283;2.574577126;34.3607407;0.315363417;-7.541313198;-12.43104034;5.594833144;9.367599168;-42.78397267;-4.544437034;3.005882387;-12.76402776;-3.356827051
-11.60161125;-15.25862321;-97.69064102;10.80155593;-7.202999913;-1.003239363;-14.10840615;1.233654023;33.17484082;-0.590233276;-8.071723384;-18.08377993;10.37676075;15.78429565;-73.42893651;10.68487559;4.654122798;-9.81356956;-2.074086528
-5.785987907;-17.77476211;-97.28418805;11.33122054;-8.227068363;-1.125067985;-18.32894658;-0.770572944;30.12104104;1.589443811;-12.71037524;-21.78152804;9.948484804;16.23937891;-80.68582464;17.5447391;3.879301628;-17.18619423;-0.591053611
1.751758983;-19.67717772;-93.27733342;10.37402234;-8.941718957;-1.006675545;-19.12092589;-1.513123871;26.35424318;3.353158044;-20.2877827;-23.4987843;4.610179256;10.94505082;-64.55150996;10.95267598;2.214465503;-28.29712772;0.757344059
5.00807107;-21.17301529;-91.85140667;9.820414468;-8.864241597;-0.861280597;-17.08669567;0.07388561;23.61295388;1.065826321;-27.45027864;-25.13889455;-2.307390246;3.585277465;-40.66914693;-3.762053723;0.495722145;-35.39193241;1.542144494
0.74703823;-22.97135884;-95.49770082;9.570814766;-7.89616703;-0.907800315;-14.71849397;3.495614927;23.6410204;-5.819650669;-30.73598082;-28.71101808;-6.683921177;-1.380536959;-27.36957539;-15.23903139;-1.491282522;-35.22319828;1.520958535
-8.309494302;-25.10422998;-100.7614658;8.204146451;-6.458543403;-1.162731109;-14.09281633;7.148303545;27.40382654;-13.82588669;-28.86050482;-34.52983862;-6.266394138;-1.73944374;-31.91742165;-15.18448418;-4.158424187;-30.39747298;0.874602633
-15.21779156;-26.50885146;-101.5467351;4.979703345;-5.275560632;-1.436663771;-15.07299181;9.524430044;34.48324869;-17.75394756;-23.39145277;-40.78046323;-1.900515538;1.365452248;-46.61889;-5.05906483;-7.069349998;-26.37034898;0.145565112
-14.19525452;-25.93362279;-95.04020167;1.113928169;-4.936432242;-1.532219629;-15.60929288;10.21442028;43.08305187;-14.54862508;-17.26952605;-44.71265933;3.375818151;4.840541318;-56.89517618;4.947704843;-8.874430011;-27.13944432;-0.124998151
-5.163766713;-23.37847085;-84.84223417;-0.938833063;-5.528905418;-1.44820272;-13.80980804;9.981626966;50.77358334;-5.641715509;-12.45003906;-44.53921947;6.534942713;6.181326965;-53.7630675;3.94879459;-8.416817559;-32.86017477;0.224786234
6.351325189;-20.62243519;-78.23701227;0.426215532;-6.597103505;-1.388242073;-9.834196821;9.967792474;55.61989551;4.190499355;-8.689413142;-40.67345689;6.413614046;5.061437251;-40.33498102;-10.8178468;-6.006464438;-40.49642987;0.908454882
13.79910408;-20.11683322;-79.76212516;4.403897362;-7.453889853;-1.557889872;-5.816411775;10.75319614;57.03827178;10.5690801;-4.468354993;-35.48858291;4.035199819;2.928554902;-27.79128942;-31.26842773;-3.579433218;-46.32613406;1.485060942
14.7195025;-23.01657412;-86.75905709;8.169511537;-7.629793614;-1.939292175;-3.840786654;12.02031763;55.87310456;12.75320655;0.896377408;-31.83868389;1.454971031;1.331648031;-25.32257427;-44.05507623;-3.38572153;-48.27054438;1.74078022
12.15694403;-28.0129871;-91.13808679;8.91263236;-7.146046357;-2.264156947;-3.841462189;12.98796617;53.69809695;13.65977255;6.010744388;-31.3771632;0.196029605;0.643991585;-33.02794995;-40.25956298;-6.17426086;-46.70097905;1.810567563
11.45975347;-32.05709493;-86.21798598;5.798663842;-6.428377263;-2.229384174;-3.457769606;13.13211898;51.84967192;16.70309652;8.319978749;-33.74506358;0.425541245;0.236489726;-43.30851979;-21.89150203;-10.38635175;-43.63228014;1.950814052
15.50082512;-32.48462582;-72.82233692;0.296196088;-5.937220913;-1.773543719;-0.138325061;12.54473116;50.82769996;22.30685938;6.459701382;-37.04334513;1.263096693;-0.327394078;-48.49510454;-0.406300758;-13.11975597;-41.11360154;2.21625876
22.46762136;-28.85947129;-59.07760682;-5.183756604;-5.789725214;-1.164298083;6.327362119;11.697282;50.37649925;27.3;1.880207761;-39.1537733;1.718852397;-0.457488244;-47.32977176;11.43666953;-12.19777145;-39.88179117;2.384865604
27.82771027;-23.09929979;-53.63039864;-8.951237384;-5.645971682;-0.804608042;13.21203737;10.94988991;50.05454094;27.87537755;-1.911916143;-38.99252512;1.417394758;0.978923724;-44.69281837;8.15027362;-7.769195218;-39.08533675;2.217718326
28.32810113;-17.90846446;-57.88562002;-10.55399166;-4.934872316;-0.912682752;16.92284861;10.34092722;49.79384038;23.50191189;-2.058499687;-36.92991343;0.624035552;4.257892248;-45.54829575;-5.691070233;-2.227694009;-37.26962519;1.784743879
24.33599679;-14.91796387;-64.16119405;-9.992510618;-3.254476554;-1.347275664;16.05174034;9.84404276;50.0351673;18.0927454;1.274748458;-34.22937762;-0.259439898;7.88757656;-49.29755513;-19.97666892;1.446894508;-33.98942483;1.489783365
18.72450538;-14.02769184;-61.9096821;-6.826725546;-0.670671485;-1.72976486;12.6817902;9.746946475;51.39035752;16.99024094;5.00686314;-32.01172508;-1.180019531;9.26795526;-49.98820732;-26.87560313;1.644491405;-30.79246601;1.708227814
13.88429598;-14.24798421;-47.16650906;-0.421723147;2.275338422;-1.760588686;10.6373199;10.63035834;54.1316004;22.12629593;5.80181662;-30.51187493;-2.477662612;6.614355822;-42.10898256;-25.81526792;-1.025046664;-30.50727057;2.35326161
10.04522802;-14.99066594;-27.14740613;8.741126754;4.836763823;-1.46150759;12.09111652;12.81593837;57.90057697;29.69700318;3.074463194;-29.11753;-4.502216247;0.614613104;-26.4319459;-22.23384103;-4.445161781;-34.98021572;2.814910767
6.461327048;-16.49477922;-15.51578077;18.14590691;6.42581386;-1.140872176;15.56804191;15.76383961;61.84310669;32.87851354;-0.287396818;-27.07942307;-7.161694903;-5.646741704;-10.35007813;-21.84643038;-6.550831653;-42.9087667;2.410982761
3.848162037;-19.07266507;-21.5946676;24.14217782;6.862027001;-1.117469276;17.32367057;18.12390146;65.07167781;27.78546066;-0.223936749;-24.2957914;-9.770163589;-8.611532214;-2.275099496;-25.50894295;-6.535776905;-49.84756457;1.005170058
4.978336209;-22.11903354;-42.27479341;24.45634239;6.393873602;-1.44185923;15.0799382;18.67083212;67.14601655;17.68502461;5.053833672;-21.55013151;-11.30398545;-6.620185274;-5.109728179;-28.81837304;-4.994726744;-51.03233351;-0.762839142
12.14622799;-24.10346994;-63.72374039;20.30813729;5.520919813;-1.849572205;10.75495867;17.51343982;68.2580158;11.38952914;13.41992946;-20.02844934;-10.89388652;-0.944103017;-14.59395859;-26.40169366;-3.194220801;-45.19936386;-1.89814047
23.66145553;-23.77802827;-72.1982755;15.97418194;4.731967988;-1.978610293;9.357951757;16.50606368;68.99784653;16.3634677;20.4488454;-20.50684279;-8.267633492;5.252317207;-23.79811874;-16.98338134;-2.214709278;-36.1830611;-1.818814639
33.17813254;-21.52198209;-65.54081849;15.5973573;4.289559636;-1.662935085;14.45285949;18.22878673;69.85045236;31.73810359;22.96764358;-22.83405944;-3.924110001;9.136722941;-29.41645474;-4.879288745;-2.548963048;-30.3751479;-0.83046284
33.56326335;-19.41424157;-55.78364653;19.58624867;4.158310775;-1.060527325;23.88514207;24.02516586;70.77100293;47.13851936;21.5407863;-26.05579515;1.039438461;9.901538078;-33.97425461;3.285131133;-4.181992905;-31.52976858;0.117539064
22.75086918;-19.68466188;-59.99764444;23.76653606;4.11617018;-0.523959163;29.8477283;32.52068521;71.17846303;49.06614626;19.78401024;-28.986285;5.389753383;8.779930447;-41.99085095;3.825962501;-6.797624131;-37.14427431;0.211210627
6.535802503;-22.73800043;-85.96154161;22.49702472;4.003203202;-0.335287389;24.14023437;39.94227877;70.44819893;30.64158338;21.1229255;-30.70539662;8.331226329;7.65794861;-53.89837908;-1.153456812;-9.849173419;-40.01868177;-0.568324159
-4.795486033;-26.52680949;-123.8287326;13.61292398;3.962937363;-0.523314215;5.050643685;42.33381752;68.60025676;-2.468742619;25.79750392;-30.63343325;9.912952447;7.588586738;-63.76717738;-5.642408042;-12.57778102;-34.51850955;-1.469826216
-3.975141401;-28.02722148;-150.8582729;1.126403302;4.478216604;-0.89129076;-19.6506578;38.26692903;66.63474345;-34.61737185;30.67404368;-28.33398186;10.98868265;8.35523422;-63.48561919;-4.754607531;-14.22007813;-22.66099903;-1.658600319
7.541425012;-25.74704396;-146.4687033;-7.002170317;6.082009629;-1.200580178;-36.64923415;30.06774714;66.10650163;-49.72788389;31.98508323;-23.51545084;12.63939072;9.154467789;-50.01515072;1.202457893;-14.42728321;-14.38692005;-0.964641147
20.63125663;-21.16660212;-106.9297122;-4.821581185;8.847823345;-1.341973003;-35.75636998;22.49196134;68.06080615;-41.21453005;28.60830399;-16.48353849;15.32404928;9.50655144;-29.18953516;6.926645056;-13.57026021;-20.5674011;-0.035824324
25.80510488;-17.76369306;-49.05494634;6.434447915;12.00583653;-1.366170399;-17.1512898;19.61196722;72.03298327;-15.49522337;23.08304519;-8.699452364;18.3219787;9.489513379;-12.24427609;6.466327038;-12.55026863;-43.46590024;0.240826866
20.82324514;-18.2594538;-0.206193217;18.31355462;14.07313689;-1.382950203;8.33469009;22.07486677;75.95818426;12.88821458;19.55786157;-2.714443403;19.97749602;9.230927355;-7.576333259;-1.69701351;-12.11346899;-72.38107221;-0.454693638
12.15613564;-22.28107827;18.34690615;20.82117999;13.60406853;-1.443426193;26.42950852;26.73267177;77.29755737;30.60222973;20.4834781;-1.071193203;18.76274099;8.399676966;-14.56744664;-12.8313687;-12.1672306;-89.00058854;-1.547206958
8.941583118;-26.40825118;3.381480384;9.811864213;10.18767653;-1.508065256;29.03726271;28.96532325;74.75565724;32.75210138;24.84023133;-4.656760816;14.51701026;6.41488367;-24.72721756;-18.92367377;-11.72377236;-79.58447735;-2.008121854
14.64349724;-26.68106687;-30.3774479;-9.530617307;4.997270772;-1.505735314;19.27823311;26.03167996;69.35054889;23.7576307;29.24912523;-11.71449902;8.915911237;3.268153822;-29.18381173;-14.3650764;-9.655332357;-45.26567004;-1.196633801
23.84270287;-21.63981536;-61.04182402;-25.96527615;0.357961184;-1.407835178;8.351013885;19.00206501;63.89656092;12.57363878;30.81787819;-18.52138087;4.622855832;0.075330102;-26.0742538;-0.275363419;-5.755883733;-2.476262728;0.604881954
27.26196944;-13.50530758;-72.8206178;-29.92676655;-1.563462569;-1.246729458;6.713533795;11.87597844;61.09473358;6.563058674;29.23137542;-21.57610542;3.512626282;-1.432879443;-21.47788257;15.63603386;-1.255828456;27.35542058;2.394881849
20.75713625;-6.57773842;-63.18556785;-19.98766362;-0.143094157;-1.077547665;16.22678594;8.596968153;61.58318849;8.175777681;26.49620458;-19.86825273;5.173222385;-0.298297895;-23.17146563;23.65299638;1.729178241;31.5767479;3.206018395
10.04722675;-4.124100288;-40.83594741;-3.321769016;3.241944619;-0.93692963;28.98528109;10.23797511;63.50195652;15.52689865;24.93903541;-15.51020778;6.897628038;2.558122255;-32.78328835;18.07189458;1.536806627;13.64750585;2.787819431
6.218231032;-6.161172855;-17.87699067;9.910916299;6.125678931;-0.839289027;33.40929956;14.44641093;64.06012145;24.97456249;25.49252532;-12.11278922;5.423417107;4.667024333;-43.39481733;0.801253995;-1.833700785;-10.88020737;1.710412299
15.11860527;-9.750890653;-2.465406472;13.75268596;6.694343878;-0.795731817;22.83613281;17.46069049;61.98419573;33.19411142;27.73771035;-12.02221394;-0.628285444;3.807188597;-44.9656177;-19.62882856;-6.529382815;-26.03870467;0.893131977
29.79086493;-11.41948272;3.862474185;9.787033313;5.128464057;-0.811816364;0.324551868;17.03257715;58.86609933;37.86411361;31.27202701;-14.52508379;-9.344065727;-0.052853924;-33.14815623;-32.89447102;-9.861821067;-25.69336396;1.000946553
33.48656166;-9.735942659;4.269511891;4.533329757;3.512830594;-0.852976728;-23.43661573;13.95608681;58.13523066;37.82741309;36.62676335;-16.47935912;-16.3148335;-4.343182595;-13.97487746;-32.55563495;-9.897290927;-15.22988508;2.15638026
12.324194;-6.136648927;3.084315906;3.542860769;4.295971377;-0.822627914;-37.07736347;11.08831782;62.23635872;33.6747454;44.47967022;-14.95392864;-17.31023056;-5.600844591;-0.201563383;-19.3189184;-6.609524055;-4.849019129;4.048846042
-31.9184459;-3.58237732;3.431077425;7.153555088;8.388606966;-0.607097726;-35.18170276;10.78103469;70.16691316;28.3291299;53.79231018;-9.821500311;-11.10353854;-2.158349525;-1.984281523;-0.243939625;-1.905870305;-1.056253372;6.17815116
-79.65369819;-4.281654205;6.680236691;11.05936648;14.32645738;-0.179191715;-20.39179513;12.88761352;77.47;26.21667335;60.89612098;-4.201574328;-0.485349375;4.272079131;-19.24557643;15.35909704;1.429578648;-3.334204132;7.96622413
-105.0645934;-8.230380373;12.73081448;10.67947954;19.1731843;0.325475513;-0.550142844;14.97763976;78.98957188;30.4524035;61.00601738;-2.296572419;9.313358737;9.49541265;-41.69437336;20.84262558;1.209584822;-7.580296711;8.757001678
-93.65930688;-13.45729755;20.20863435;5.334064779;20.5355704;0.652074859;16.17073386;14.53289405;72.49971294;39.61948531;51.50647456;-6.22419603;13.77309404;9.703793624;-56.2939248;15.22098594;-3.079495164;-11.78822722;7.94560687
-52.77437672;-17.48912425;26.72387625;-1.214331005;18.20388142;0.591923469;24.67114098;11.24110368;60.49188838;47.02916282;34.52572586;-14.27520428;11.68871557;4.230603373;-56.21545807;2.81472218;-10.08957618;-18.01467077;5.357904337
-6.84616405;-18.79165904;29.81202462;-3.961298933;14.20127235;0.154055354;23.51309336;7.410819036;48.68196217;44.1128049;16.52080461;-21.94973619;5.503502172;-3.886829972;-44.58961293;-9.910951722;-17.29589773;-28.84781015;1.64077049
19.31549856;-17.26392915;28.45758958;-0.606186587;11.23662875;-0.404894422;13.8580302;6.088373054;42.26377383;26.37460481;4.809608051;-25.00739602;-0.715437854;-9.97599524;-30.9199724;-18.20647595;-22.1498416;-42.26243637;-1.781965986
16.94557162;-13.78578934;24.0677341;7.048781843;10.76620931;-0.741339341;-1.376673607;8.395991091;42.64378222;-2.266614871;3.386491763;-22.28394719;-4.096255982;-10.8901835;-23.78669734;-21.24331698;-23.15878327;-50.57505325;-3.389497645
-2.469145408;-9.482815219;19.77482389;15.03592611;12.13185316;-0.66712785;-17.57812209;12.32918666;46.98243872;-30.42952694;10.92393289;-16.30272253;-4.548734009;-6.950039063;-25.72537099;-21.50496743;-20.44547624;-45.48974271;-2.528395693
-17.61312214;-5.311122982;18.27575498;20.39983569;13.36068535;-0.284924339;-28.78243517;14.12894113;50.6709655;-45.57841614;22.1464075;-11.4283788;-4.127303523;-1.360661272;-33.50658778;-22.09409517;-15.57740711;-25.36208168;0.059137361
-13.8008015;-2.028193607;19.86347222;22.79238054;12.89989523;0.095809419;-29.50974018;11.25741585;50.66497851;-41.65810241;31.25428514;-11.05413327;-4.891613096;2.261812793;-42.2479324;-24.04332979;-10.76351232;1.782506329;2.645853216
7.095030598;-0.211759885;22.36709078;23.52013802;10.86942644;0.198100929;-17.74471099;4.638957141;47.13833632;-22.74939968;34.85047799;-15.76815473;-7.058039838;2.291370716;-49.10421914;-25.60417305;-7.802650231;22.74227666;3.66500866
29.9894098;-0.070388374;23.13807781;23.5834841;8.875586311;-0.02019169;2.962689063;-1.687386139;42.49662253;-0.147678915;32.71671815;-23.44550018;-8.880586114;-0.276470137;-53.65820062;-23.94998357;-7.305377494;28.09406433;2.761289647
39.38285376;-1.172502827;21.37367308;22.9915043;8.629263526;-0.360775778;24.32181738;-3.367532531;38.99562511;15.02823844;26.75478872;-30.74947917;-8.249773385;-3.138256392;-55.78302922;-17.85708103;-8.584188561;18.62525448;0.935327144
30.97524889;-2.44504832;18.70819002;22.00395086;10.55637472;-0.568857865;37.17129612;1.085679849;37.17120234;18.48016946;19.60461177;-34.79315943;-4.623334805;-4.634716773;-54.07241377;-9.137259341;-10.23778984;4.17678624;-0.329421064
13.42841885;-2.61160966;17.55901289;22.64652062;13.52147034;-0.54202116;36.18250488;9.140383734;36.26750554;14.2110067;13.97389354;-34.08578881;0.321089044;-4.750992454;-46.90909421;-1.553184736;-11.04615762;-4.012680931;-0.246375157
0.111871864;-0.843586385;18.79598213;28.2478929;15.80990643;-0.387657772;22.43915293;16.00503929;35.86499344;10.37076781;12.36872761;-28.74382783;3.851324304;-4.5786302;-35.13404535;2.019664561;-10.62003906;-1.230933617;0.744153956
-1.549320268;2.811482233;20.94846165;40.6089683;16.47569807;-0.293422071;2.429587278;17.97350233;36.79896973;12.96918588;16.30245011;-20.37945688;4.224035479;-4.986980382;-23.26620068;1.903699349;-9.444701998;8.584288945;1.494593707
5.467104757;7.48644082;21.70751133;57.06153338;15.92361066;-0.340847951;-15.53289439;14.86412692;40.23898117;22.03293672;24.90375724;-11.808295;1.964649919;-5.786155276;-17.32933247;1.402208481;-8.386517681;17.48300133;1.227256168
12.1521399;11.9272478;20.25298015;70.48898482;15.3134396;-0.435225164;-24.99872687;9.816933882;45.73712301;32.4781068;34.2057778;-6.284080655;-0.632884988;-6.04873258;-20.56111921;4.027251412;-8.075428656;20.34855712;0.215396175
11.90293387;14.97974172;18.07236119;73.26925492;15.39847382;-0.410319709;-23.28692839;6.755777526;50.31194937;38.36039552;38.59377478;-6.086651659;-1.370680352;-5.144659627;-30.55973108;10.29417804;-8.590039063;18.13276459;-0.516642387
5.572793435;15.90715637;17.35093772;62.65984135;15.8553249;-0.202475249;-11.47522577;7.538215462;49.93594394;37.04192826;34.26979356;-11.02181561;0.125208394;-3.445595964;-40.54129372;16.75341746;-9.578919047;15.395873;-0.183959688
-0.57770678;14.54854385;18.43874369;43.40785385;15.67368153;0.074017655;6.439060948;10.90481535;42.63061501;30.46540802;22.42017505;-17.99147455;2.188759925;-2.046037178;-44.00956253;18.30159846;-10.61485496;15.19816503;0.979408667
-1.32790412;11.40773276;19.00207613;25.12023691;14.21090995;0.223695726;24.40792342;13.82270764;30.65352577;23.2068679;9.224272667;-22.42683776;2.559819617;-1.798736927;-39.23847218;12.19532619;-11.46696168;16.34547337;1.86235183
2.796698477;7.619596044;16.0364419;15.98896501;11.9305288;0.149502022;35.53839351;13.96289886;19.64713472;19.19397725;1.927901068;-21.04604956;0.304452876;-2.579913726;-30.10091403;0.667184521;-12.13463741;15.29626831;1.425778005
6.533939558;4.60689558;9.129673887;17.5206974;10.13583534;-0.053468511;34.33652227;11.31510542;14.98832947;19.45984025;3.528069532;-14.12187223;-3.358114211;-3.450243392;-22.80951345;-10.07056846;-12.72701381;10.45215125;-0.380599922
5.181692953;3.382513821;1.828820253;24.30657205;9.905824304;-0.180671105;19.64753064;7.816652164;18.00711729;22.14295675;10.31343432;-5.447307215;-6.01244604;-3.533777669;-21.40100369;-13.93412621;-13.36197373;4.38099025;-2.553192793
-0.94066239;3.832813124;-0.668957209;28.92194243;11.14801238;-0.104324925;-3.571189224;5.541648156;25.10192195;24.32272496;14.72545327;0.261694646;-6.041373645;-2.79070997;-25.51744943;-9.235531995;-14.15057357;1.657636597;-3.889022604
-6.882401224;4.567494514;4.010285994;27.94712124;12.59049296;0.107589683;-25.70191656;5.075119272;30.59736811;24.30497206;11.77946753;0.777699904;-4.055228477;-1.987014418;-31.77416423;0.071898346;-15.18312208;4.314516168;-4.009742549
-7.719697104;3.680771949;12.59705723;24.25330914;12.73686855;0.251032945;-37.26474179;5.36755807;31.16884933;22.95250559;3.985989726;-1.977992852;-2.558994038;-1.917892452;-36.92992549;7.121234504;-16.42659611;9.293779697;-3.64819472
-3.080411963;0.097329217;17.86825784;23.84620071;11.00179532;0.172689355;-34.38673198;5.007697937;28.30811945;23.26844649;0.333039708;-3.403396413;-4.02231535;-2.617459478;-39.9132157;6.813015732;-17.58997924;10.55145815;-3.937689363
2.568332684;-5.405355753;14.0067171;30.10430926;8.117070481;-0.085433483;-21.07785174;3.659550517;26.82683271;28.30604661;9.367284908;0.191188077;-8.784849973;-3.27768328;-41.31993192;-0.965753067;-18.13712795;4.201848782;-5.326031251
4.028542854;-10.34057093;1.443070781;40.39722529;5.531275407;-0.316537618;-6.326704496;2.366541314;30.60747096;38.40078187;31.37145496;8.573831406;-14.42424847;-2.939329005;-41.57287893;-11.76371714;-17.55183371;-7.771878567;-7.074250792
0.097094058;-11.88443249;-12.97036287;48.0204373;4.351501199;-0.329440712;2.142744266;2.500613813;39.07861286;49.42710533;55.9794636;17.49665432;-17.17561769;-1.325534382;-40.01655184;-19.97856964;-15.71805182;-18.56581269;-7.795154631
-5.32315836;-8.609227281;-20.9433922;47.85632833;4.689714159;-0.117281825;2.872996145;4.357572033;47.31935759;53.72077576;67.87357227;21.63298754;-14.48770177;0.912375694;-35.90019809;-22.46188879;-13.10295573;-21.57264422;-6.582863983
-6.666276293;-1.388237234;-19.04749966;40.96752559;5.851384187;0.13723839;0.654268338;6.713336626;49.73762831;44.0188347;57.08294411;18.34711793;-6.939496878;2.713155912;-29.95892936;-19.69145376;-10.53198687;-15.19064452;-3.773380018
-1.629506144;7.134108888;-11.20269684;34.14410274;7.060197794;0.2246342;1.658877812;7.805749529;44.36062082;18.62105291;26.58016197;9.505527328;1.855203023;3.386385947;-24.50224508;-14.09921122;-8.679666016;-3.550149201;-0.699300188
6.694343427;14.0706477;-5.233884617;34.59223058;8.015870718;0.092954644;7.858721615;6.936714976;34.31662168;-15.6119784;-8.542304912;0.096722976;7.358018852;2.972076314;-21.45739618;-7.467799345;-7.674042642;7.112628966;1.333427772
12.23361888;17.71646368;-6.275227941;44.00656483;8.845713643;-0.11105192;15.45302961;5.293720837;25.42041337;-45.248284;-30.08990635;-5.154011941;6.871492668;1.946611982;-20.18415269;0.172183892;-7.147126682;13.08614567;1.971832066
10.75092399;17.99084629;-12.47120899;56.85247452;9.638378242;-0.178510106;18.61827603;5.18751058;21.9241816;-57.10086089;-27.89161985;-4.622409191;1.177971682;0.671374747;-17.58820742;9.320521048;-6.678345298;14.97998034;1.894198873
3.016176317;15.88059626;-16.55853161;64.32283462;10.13362326;-0.027621987;15.25121536;8.209800864;23.85;-46.07419866;-5.539986652;-0.185228609;-5.965514812;-0.818412043;-11.10841193;18.88446915;-6.210737924;15.69596274;2.050638978
-6.082663021;12.60204542;-12.03220828;60.89450557;9.935908528;0.224613855;9.492146119;13.75352793;27.82819474;-18.77257912;22.7731609;4.706115207;-10.10391864;-2.493959739;-2.171943371;25.472537;-6.029324974;17.00490316;2.790068359
-11.41303957;9.198181367;1.201703596;48.37840011;9.043912374;0.369798844;8.453937253;19.12809421;30.38175715;10.08381408;41.60867705;7.507532049;-8.679368161;-3.893040184;3.39310039;25.18238163;-6.306265679;18.06377911;3.643220086
-11.09186957;6.648619476;16.31574167;34.41499362;8.114631836;0.294602504;15.64509941;21.29470787;30.68465176;26.51307668;43.22640259;7.772520023;-2.382969278;-4.154868124;-0.713850355;16.66462791;-6.670448413;16.98464832;3.896895264
-6.976628928;5.971817159;24.52431499;26.76373907;8.088400521;0.077953823;26.74953655;18.99217569;30.531408;25.54746181;30.56602603;6.549756027;5.446677913;-2.673895855;-15.62070153;2.90113496;-6.30296362;13.50832165;3.371084101
-2.352494305;7.84595584;21.39590389;27.90861432;9.413963342;-0.084917375;31.83454114;13.70055353;31.86590529;13.26771435;13.3893616;4.973088737;10.88128192;0.162005875;-34.70576387;-10.03924956;-4.597465393;9.873484881;2.647735423
0.727251081;11.91644374;9.50500193;34.00851565;11.5549979;-0.058020598;22.81704656;8.736528998;34.38081082;1.374585594;1.288326665;3.429276062;11.6167146;2.919132362;-46.99151134;-16.63112162;-1.84494261;8.915455575;2.529457967
2.182271875;16.52581104;-4.296407654;38.63491153;13.28823075;0.120416887;0.434904555;7.125652558;35.53833364;-1.483536163;-1.456333304;1.848742401;8.074931346;4.013045451;-44.64518152;-15.2957441;0.738859359;11.28875173;3.233087362
2.626807126;19.44865801;-14.21137992;38.04127612;13.63073394;0.283322874;-25.02948148;9.733272249;33.06842773;4.820201666;3.483094911;0.502714041;2.884430364;2.951391442;-28.96901445;-9.032375972;1.823466676;14.66568487;4.083985179
1.899368732;19.36420341;-18.83310245;33.78681449;12.64756604;0.292084204;-40.25736537;14.87608102;27.64127008;13.33165158;11.39363197;0.28258885;-0.801762117;0.88349654;-9.915181241;-2.830993151;1.031692134;15.87812118;4.03645731
-0.865805035;16.98816991;-20.13155059;30.91190587;11.43302767;0.158395113;-37.89171217;19.54290112;23.10320962;16.5756575;18.01927538;2.06245201;-1.087149896;-0.137844312;0.942695413;0.120552588;-0.650621847;14.05947554;2.600615033
-5.745645245;14.82066259;-19.84790061;33.44483214;11.23013975;0.021814708;-21.27343724;21.27425944;23.72217132;12.6230814;21.29131419;5.722363247;1.790716905;1.260467452;-1.2508708;0.550429639;-1.581571119;11.73649342;0.372854781
-10.90061858;15.46080889;-17.2443873;40.94308275;12.39078367;0.01051865;-1.512408162;19.43963848;30.54580553;5.911787403;21.02963249;9.799434696;5.86909902;4.559906089;-11.48460837;2.027996902;-0.810137047;12.64656773;-1.313411272
-13.37691422;19.633464;-10.51387299;48.69497636;14.04056403;0.118877976;10.56043958;15.22823454;39.92143861;2.709186009;17.90003906;12.20377071;8.768798781;7.539789083;-19.41098068;7.681849569;1.037273799;18.15064666;-1.358866466
-11.47113582;25.44529303;-0.307777228;51.21702295;14.74133523;0.215016844;11.29241004;10.60768318;45.5975575;5.524526129;12.85171397;11.50883852;9.051123517;7.836622314;-17.89023404;17.33436945;2.152006923;25.55779835;0.285887362
-6.535560582;29.54044151;8.53918462;46.22924972;13.61692415;0.167230663;5.074515404;7.103162741;42.95101234;11.30443895;7.151029539;7.840691269;6.84844939;4.737842591;-8.631502083;27.24536591;1.015696745;30.05161374;2.597063923
-2.310310543;29.37939601;9.583589735;36.16851278;11.02619411;-0.031941632;-0.622322984;5.1628027;32.15014312;14.63597392;2.31593105;2.735679005;3.513971113;-0.164981848;-0.407950837;32.59044969;-2.198347763;28.6470356;4.226508461
-1.999028546;24.97537304;0.081536007;26.35273658;8.253566605;-0.259436058;-1.384231636;4.308291398;17.89755705;12.7458401;-0.509604987;-1.848307066;0.644574399;-3.99253276;-1.439969347;30.76;-5.483919964;22.70365005;4.400601246
-5.462048722;18.82450666;-15.53623204;21.37979949;6.505100566;-0.375510522;1.75585194;3.724365985;6.082463528;7.718755941;-1.35201678;-4.610738897;-0.851847235;-4.523059571;-12.32988939;23.07919347;-6.34824016;16.76;3.295018848
-9.052215497;14.1466004;-27.61130107;22.39320688;6.050884648;-0.347907179;4.842550243;2.789329493;-0.003028536;4.126889765;-1.542052705;-5.404117533;-1.110171451;-1.638004994;-25.41306238;13.85107327;-3.662340138;14.73509129;1.703407891
-8.481319074;12.80568193;-27.81887954;26.92042752;6.186280687;-0.270341488;5.355402709;1.282684925;-1.105981913;4.53235271;-2.831772995;-5.012799558;-0.995038798;2.739641976;-31.00211648;7.596457597;1.427116488;16.87943598;0.391494022
-2.475013006;14.4209024;-15.41128219;31.03060888;5.966109212;-0.262619333;4.236913684;-0.669935722;-0.381640745;7.188053101;-6.0779513;-4.551927122;-1.456035809;6.059826451;-25.2551915;6.499171221;6.266603797;20.12133907;-0.304438296
5.83499869;17.15148608;1.97355303;32.0763324;5.02953248;-0.35269464;4.141757141;-2.721883622;-0.389197028;8.071345224;-10.53863977;-4.894374158;-3.008598609;6.792421059;-13.09970596;9.661754211;8.573486652;21.32423494;-0.401731005
11.045957;19.32840116;13.89677084;30.1873685;3.814714872;-0.456024261;6.190721595;-4.406928233;-1.256679117;5.220836342;-14.35705924;-6.316597212;-5.592465814;5.14435953;-3.852561466;14.33010887;7.986267122;20.33240763;0.04750469
9.506725776;20.56994638;14.88205711;27.7728346;3.042668672;-0.471001364;8.753088993;-5.272212487;-1.279751084;1.102428815;-15.83523871;-8.378558472;-8.740362833;2.514074847;-3.32847675;17.93760391;6.132114379;19.947502;1.113141063
2.028420415;21.61700641;8.264454925;27.63406242;2.994710219;-0.394118499;9.496602741;-5.105407839;0.934517955;0.537650015;-14.5087229;-10.06585861;-11.82106564;0.317635367;-9.13900729;19.52893703;5.240186662;22.89171053;2.822336974
-6.822567102;23.26367366;3.083547099;31.02207385;3.253252437;-0.336250103;8.456967165;-4.172996181;4.843923143;5.966090126;-11.30065686;-10.25750822;-14.1978633;-0.841725266;-13.12736833;19.84572426;6.443344236;28.67686773;4.895522069
-12.16280345;25.45261746;6.517309874;36.8041636;3.120494051;-0.415667713;8.638367559;-3.25571878;8.256637511;14.54420532;-7.829391941;-8.419621752;-15.33122659;-1.157936405;-8.814287976;20.37188712;9.070554294;33.4577214;6.732561671
-12.15042829;27.32017386;17.87440419;42.12539383;2.305714141;-0.626104974;12.97949749;-3.326274229;9.139606941;20.14260575;-5.517694928;-5.124596163;-14.93496209;-1.03464535;2.521237345;22.19137129;11.36270018;33.22803389;7.750555853
-8.719401986;28.04875414;28.85223288;44.08664939;1.241441071;-0.811465851;20.29566162;-4.966877699;7.2920619;18.82531448;-5.072966098;-1.905308765;-13.18247459;-0.599728708;12.36379328;25.36571821;11.90665295;27.58952856;7.804255541
-5.446236857;27.6669137;29.77815236;41.44068791;0.741520603;-0.786233012;24.38962284;-7.880719656;4.482971432;12.90554561;-6.419568852;-0.335295913;-10.78616429;0.258544442;11.77554557;29.01106835;10.60515421;20.6485445;7.299839585
-4.605318466;27.03697428;16.95398547;35.33374651;1.312748889;-0.504141017;18.12119787;-10.88244001;3.062595075;9.506659117;-8.839881809;-0.8829999;-8.758521254;1.497743124;-1.092280784;31.8207254;8.507035034;18.02703221;6.871729137
-5.861737891;27.04476622;-4.397948525;28.661248;2.731358236;-0.123738657;-0.291935267;-12.48596413;4.304562645;14.25809464;-11.18896572;-2.441250504;-7.886915999;2.673431505;-18.99328286;32.6731445;6.808534011;22.37022338;6.890639248
-7.375384021;27.73745741;-23.49861191;24.40659574;4.238388885;0.097700436;-24.07381224;-11.80259017;7.777084999;25.30781057;-12.30331016;-3.042893356;-8.24487391;3.148823949;-30.75879912;31.08768963;5.950753586;31.09158763;7.230127857
-7.951720342;28.20292936;-30.87752496;23.96324439;5.145527727;0.001121974;-41.19295066;-9.201250572;11.99529413;33.11490239;-11.66906964;-1.335907089;-9.134677671;2.583333397;-29.47707838;27.42710184;5.520230881;38.2388762;7.482253428
-8.146152105;27.33105361;-23.77154082;26.48741896;5.294505864;-0.350139285;-42.38013828;-6.267862636;15.52333377;26.9586558;-10.001711;2.324544165;-9.57925908;1.228981435;-17.18543433;22.80522548;4.889046423;38.94508717;7.398344984
-9.414619727;24.82957791;-6.800400882;29.68433168;4.987636182;-0.723381382;-27.8957085;-5.00298569;17.53401551;3.433019453;-9.10583585;6.111488604;-9.040019531;-0.254664598;-2.600557265;18.70716751;3.920545007;32.89894837;7.127051781
-12.29616696;21.64173899;11.59917348;31.46646523;4.526516712;-0.900851497;-7.599313379;-6.671971161;17.60491112;-29.79683125;-10.7415032;8.180629166;-7.806585088;-1.293738923;5.882304822;16.43894392;3.112718265;24.26470577;7.022384811
-15.47060132;19.39947742;23.86276243;31.31156798;3.86671031;-0.840122734;6.058062613;-10.96918384;15.37064793;-58.19894473;-15.11064521;8.182020449;-6.724285984;-1.743379385;6.081864215;16.64380745;3.130068359;18.46751918;7.21317217
-16.6497911;19.31820852;26.18124118;30.37776624;2.767599138;-0.681655451;6.896148291;-16.01448425;10.71059607;-69.56589033;-20.20548084;7.553407919;-6.458274212;-1.79051024;2.326552728;19.12221785;4.216252126;18.6010358;7.367468224
-14.52795623;21.36410051;18.81170992;30.37629348;1.306373329;-0.61008667;-1.051189073;-19.24;4.410107739;-61.39442714;-22.86338042;8.314534083;-6.900455704;-1.573156578;0.594956265;23.02119055;6.014550271;24.06249732;6.91647456
-10.03964699;24.29189832;4.939325988;32.14813366;0.215155729;-0.698343007;-7.44792628;-18.71261877;-1.503593881;-41.26675096;-21.03939855;11.36591917;-7.236316129;-0.95329161;3.144840999;27.23293775;7.888092552;31.84347987;5.570791734
-5.800754657;26.48872828;-10.62395497;35.08450648;0.595494025;-0.867106474;-4.211561258;-14.16922395;-4.462826843;-20.61727498;-15.5973444;15.74393545;-6.639213954;0.291729251;7.261051066;30.75075123;9.379374179;38.82645241;3.66609578
-4.211775651;26.99967669;-22.6832437;37.80518608;3.113640646;-0.980157925;8.021473441;-7.180837827;-2.887156069;-7.141794309;-10.00663805;19.4704138;-5.003932364;2.054187961;8.777463607;32.84563462;10.39358641;43.18012312;1.997736385
-5.820694878;26.04720179;-27.30912637;39.45627072;7.304359157;-0.974838173;20.40918265;-0.33625692;2.5870185;-1.44667324;-7.88332008;21.25017625;-3.065429986;3.737194003;6.730194523;33.12659064;11.02702465;44.3432068;1.246397948
-9.222195132;24.76759569;-23.7490008;40.48812961;11.62224394;-0.905538404;22.70852622;4.110058594;9.283143855;0.521184265;-10.16299093;21.53533835;-1.767324543;4.626683551;4.651647389;31.62668305;11.31591104;42.49342314;1.466066507
-12.38456449;24.4212257;-15.32775544;42.24300573;14.32076567;-0.869829631;10.92278278;5.36654996;14.12348632;2.440817636;-14.23003906;22.05120653;-1.420902875;4.533852111;7.250078125;28.9378382;11.20181702;38.45303507;2.067286724
-14.13353636;25.61762253;-7.978334958;45.71095447;14.55574128;-0.900563359;-9.934379716;4.364894301;15.5622674;4.60183681;-15.91517698;24.2524722;-1.42562968;4.095200709;15.55418273;26.23356762;10.71408789;33.91;2.311894742
-14.5793046;28.00140973;-6.631852867;50.51446451;12.88022227;-0.935471006;-29.58230148;3.005482161;14.33627857;4.918504734;-12.93599199;28.11220865;-0.859559023;4.335820807;25.12425602;24.98700161;10.09962637;31.05863883;1.905609799
-14.38208503;30.50950305;-11.76589016;54.96318762;10.73908951;-0.894762431;-39.40428202;2.846135409;12.48908646;2.086557346;-7.030680503;32.29879693;0.54234115;5.759133083;29.2623162;26.38884652;9.686615126;31.29396763;1.205378476
-13.81277132;31.97992985;-18.91470112;57.0993832;9.345035388;-0.787132314;-37.33896146;4.045686588;11.53606505;-2.604435258;-2.932174779;35.4984407;1.925175043;7.742684928;24.65198931;30.74058296;9.592813746;33.90435587;0.898855315
-12.60779408;31.74247668;-21.98364686;55.85695655;8.801945755;-0.732185572;-27.73347177;5.244018402;11.32117899;-6.442089144;-4.831404301;37.5993099;1.897382475;8.874155007;14.53742196;37.19203348;9.619746965;36.2394751;1.454440072
-10.68422042;29.88555241;-18.12244665;51.46701882;8.145010901;-0.864900914;-17.25808359;4.496015859;10.48088242;-7.903614546;-13.05406954;39.63411464;-0.216404671;8.094851329;6.524249561;44.00444788;9.525321109;35.72279489;2.799079271
-8.834258288;27.10174492;-10.32056142;44.99308001;6.246355133;-1.202898961;-10.5288238;0.702840081;8.025638771;-7.833566307;-23.57784303;42.60209016;-3.503394967;5.755976763;6.690936555;49.19759612;9.448215331;32.19293283;4.442498272
-8.49470009;24.25147135;-5.401908342;37.63164846;2.863458028;-1.600765822;-8.403775774;-5.380019531;4.591447108;-8.003639937;-30.77964073;46.39036662;-5.827691536;3.632680697;14.92133517;51.2440785;9.997899254;28.32588143;5.870930977
-10.61123031;21.93047774;-8.724169427;30.46349514;-0.992857901;-1.843909868;-9.185171412;-11.27572868;2.222537615;-8.73744387;-31.25574377;49.9239408;-5.306987492;3.722367993;25.35954106;49.5347394;11.75368747;27.34851981;6.84096084
-14.59329559;20.29818846;-19.69183401;24.68368552;-3.662890476;-1.81064773;-10.78417924;-14.09404555;2.835487875;-8.342268651;-25.79476539;52.45207602;-1.794273813;6.680168594;31.48455468;44.53930342;14.49716528;29.81578148;7.363123857
-18.42079784;19.22590861;-31.73864547;21.67860165;-3.972050385;-1.567626386;-11.91136537;-12.2865056;6.654474883;-5.2026697;-18.18971855;54.68561776;2.865034523;11.14620599;31.33710801;37.70469294;16.89929864;32.47482551;7.490882107
-20.00305173;18.58308275;-36.94967997;22.38606678;-2.072833544;-1.318447597;-11.96316415;-6.766448408;11.92010297;-0.422329118;-12.14664849;58.5159107;6.113590465;14.59468133;28.3905404;31.09108028;17.14692818;30.70579261;7.198421433
-18.75218905;18.38189187;-31.78347152;26.19048552;0.591813454;-1.249689796;-10.61052262;-0.625622607;16.08080954;2.067571013;-8.917716346;65.3373099;6.561728701;15.13393866;27.50024661;26.69594589;14.22243533;22.78915626;6.489830589
-16.05793337;18.64432556;-19.48523884;30.39533983;2.155859524;-1.401983293;-7.942773168;2.491729063;17.4504903;-1.254288842;-7.390139563;74.39475466;4.982640679;12.88084772;29.81752112;25.56254945;8.880334366;12.21105879;5.593643337
-14.22039275;19.13949747;-7.470908351;31.20686351;1.429006527;-1.664935236;-4.879980722;0.449344969;16.01140879;-9.623078291;-6.105751237;82.74309478;3.603079398;9.816123644;31.52451971;27.08602831;3.436706343;5.510219642;4.966988488
-14.67538782;19.30963272;-1.954716308;26.04068351;-1.469982745;-1.884136328;-2.926470886;-6.115540869;12.87021744;-17.46265513;-5.092203916;87.08972466;4.242762965;8.214342852;27.77532718;29.0999315;0.350785013;6.9987567;5.008856265
-16.93281026;18.57094314;-4.084994985;15.68946857;-5.277359254;-1.977707886;-3.005937325;-14.11141961;9.055304671;-18.60264702;-5.794199682;86.13325779;6.813828125;8.886656323;18.32411625;29.01542144;0.574556179;14.76192049;5.69854967
-19.04902361;16.81483801;-10.29577992;4.616971267;-8.355096402;-1.966818519;-4.362367166;-19.73113987;4.824137981;-12.15589529;-9.311792061;81.51763834;9.415283147;10.63318297;9.408923524;25.54033212;2.929058013;21.70860484;6.512837948
-19.19853807;14.66472029;-15.95717914;-1.210935585;-9.553777581;-1.914407966;-4.848978829;-20.56805594;0.046669946;-4.727109778;-14.7716268;76.67470576;9.942867796;11.32533938;9.467771141;19.85641705;5.031869062;21.29120485;6.769239616
-17.06310432;13.15864043;-18.87176406;2.241032372;-8.688908202;-1.849872435;-2.747764213;-16.83654571;-4.854011231;-6.086587488;-19.50875511;74.60280667;7.864734255;9.712734283;21.78267315;15.22207235;5.09464517;13.28324776;6.157967043
-13.98886175;12.99951675;-19.78454683;14.61502712;-6.450887809;-1.757696088;1.401532124;-10.99886976;-8.475148789;-20.9678976;-21.00853961;76.41691011;4.664102155;6.463235757;40.35788432;14.95084909;3.20847234;4.518971094;5.01654601
-11.90702127;13.95541986;-20.08106056;31.31154048;-3.902808608;-1.631574943;4.880282649;-6.113506121;-9.10979733;-43.56671743;-18.87981825;81.61619623;2.572791034;3.58810135;53.17274513;19.98238504;1.132195745;3.511176314;4.084862836
-11.95607873;14.97013183;-19.41660274;46.09350282;-1.901407834;-1.522745002;5.1373132;-4.00595841;-6.045440356;-59.92185188;-15.06019894;89.33840093;2.68331196;2.751067124;50.90877744;27.80731772;0.790666919;13.14477866;3.916591562
-13.84107073;14.99396141;-15.84249944;54.34290013;-0.749373829;-1.516043318;2.503855518;-4.405769731;-0.343510995;-57.32028556;-12.05452474;99.04420712;4.083196845;3.894262653;34.35321106;33.74285497;2.708783279;27.61568529;4.432607461
-16.24998156;13.89462996;-8.339979799;54.92424838;-0.21163806;-1.645159833;0.598137045;-5.484148141;5.678305488;-33.97402376;-10.80133955;109.9052233;4.798034135;5.35023772;14.27019677;33.89428965;5.624067278;36.5155793;4.997186191
-17.81153827;12.64899893;0.904413564;49.83643099;0.186123106;-1.83093172;3.477000563;-5.273226031;9.948071868;-1.457929647;-10.09677342;119.8056184;3.755253595;5.355386294;3.454611787;27.79627251;7.53589795;33.01710802;4.955881143
-17.81061089;12.56681551;7.155859428;42.45100228;0.805287679;-1.917470199;11.56344729;-2.917400233;11.95093847;22.32038248;-8.068640794;125.5821737;2.029419157;3.676276219;7.179300865;18.80831046;7.288011723;19.50703986;4.177551906
-16.28039399;14.14450471;6.711521231;35.85053122;1.723460403;-1.792603002;19.93277822;1.052603136;12.80342526;24.63511349;-4.300238539;125.0204626;2.158062149;1.925214231;19.80565317;11.9018231;5.394828334;5.929330847;3.142272011
-13.6833894;16.54803138;0.43393336;32.18119443;2.837753456;-1.492974572;21.01572055;5.440839399;14.06113696;5.604230115;-0.591916003;119.131845;5.943368481;2.218840534;30.38707383;10.39462851;3.498755706;2.060131581;2.514405808
-10.62453428;18.25707466;-6.166096615;32.75860928;4.122885302;-1.194972881;10.16997909;9.393048074;16.2663598;-23.1807903;0.409742889;112.3736837;12.53533022;5.252700021;32.56719233;13.98166791;2.987194987;9.968056868;2.585085652
-7.792664294;18.39661913;-6.973308595;38.06540405;5.788577945;-1.086866611;-10.12070307;12.85828117;18.42396906;-47.24711043;-2.485567652;109.9070777;18.52447943;9.439291576;30.26043237;19.42441475;3.946897647;22.75929442;3.068369666
-5.955616458;17.59852125;-0.450278036;47.24949566;8.141673288;-1.223349006;-30.98214968;16.21304489;18.79344186;-58.12958108;-7.876974629;113.7079544;20.22254705;11.96305001;33.9289568;23.23589591;5.280201861;30.48427823;3.407562891
-5.756255889;17.53623496;8.406853361;57.69036684;11.20369891;-1.484418791;-42.65148965;19.49031854;16.30270386;-56.32207198;-12.89244779;120.8647541;16.48927895;11.03751854;50.24034619;24.21524478;5.795268694;28.19522846;3.291649185
-7.329721705;19.39441801;11.38765115;65.57324638;14.38897508;-1.674083026;-40.77633669;21.97892361;11.43003906;-47.51678679;-15.62423451;125.9727381;9.870498641;7.570190676;73.92868147;23.90968597;5.282478921;19.52228537;2.906650326
-10.06128319;22.54399552;3.439069253;67.68550509;16.58662679;-1.675512718;-28.84458203;22.61279043;5.89993402;-36.69600006;-16.72714577;126.0129847;5.000297138;4.770343243;89.5108406;24.81321715;4.653307547;13.04655856;2.704510761
-12.78295799;24.66951739;-12.84276439;63.41188798;16.72725379;-1.533000479;-15.1110874;20.85656;1.519501481;-25.44557287;-18.7376275;123.4870203;5.31364988;5.791960323;82.66954412;27.93936058;5.048998559;14.78224341;2.921587746
-14.35961215;23.45336728;-28.32846256;55.34678996;14.51566532;-1.397557969;-6.653797997;17.3253599;-0.890991054;-13.9325605;-23.6883049;124.4928771;10.48066747;11.10526856;52.79047379;31.85245249;6.699043948;23.14266635;3.307886868
-14.27608251;18.56323285;-33.52025594;47.75615573;10.79419066;-1.391560973;-5.182570304;13.56228744;-1.715518584;-4.27053292;-31.11893161;132.5996761;16.51392495;17.66104726;16.26897305;33.96563519;8.504427229;30.42604552;3.329156775
-12.83435081;12.28692248;-25.2314891;43.78847642;7.188201889;-1.51276607;-7.414247949;11.09313102;-1.91222384;-0.872845796;-38.25480002;143.4755159;18.53698976;20.68875706;-3.246724377;32.97977691;8.713489124;29.30203853;2.661579347
-10.89614482;8.140659128;-8.771933857;43.47525171;5.189111334;-1.654570715;-8.931178338;10.49634842;-2.180861074;-6.749911697;-42.22634216;145.5038847;14.22850251;17.01694357;8.634746442;30.34060916;6.180977766;18.77771659;1.520651473
-9.43724992;8.403082107;5.955512476;44.1089507;5.280404899;-1.71180129;-7.840971386;11.22887225;-2.592272945;-19.22299297;-42.41993739;127.2639815;5.468236861;7.581312082;45.8682711;29.3516087;1.263395781;4.886632397;0.510046387
-9.21440956;12.45998835;11.44364803;42.76584994;6.734300617;-1.669426761;-5.325056626;12.31360362;-2.830824663;-29.79377314;-40.94866958;86.93538967;-2.947318296;-2.756375013;84.83526898;32.48549967;-4.287480261;-4.073515405;0.11479002
-10.61035924;17.27049487;7.453477979;38.97812044;8.237865694;-1.597847254;-3.323142596;13.25627979;-2.673339694;-29.50348665;-40.87814545;36.25516521;-6.527634249;-8.103761365;99.76646096;38.95586298;-8.316482858;-3.584427296;0.296354478
-13.52345299;19.60990781;0.367898989;35.33753406;8.88392431;-1.57205256;-2.135750743;14.36321745;-2.230504154;-15.97266415;-43.76242371;-4.938097474;-3.940873681;-5.253485684;79.9279696;44.53172475;-9.432044919;4.511960062;0.566417172
-17.24390343;18.34967733;-2.13512695;35.41337156;8.774317234;-1.601350914;-0.389184837;16.17249942;-1.803816734;3.855865499;-48.55929263;-20.54169345;2.405176073;4.275092097;36.44204473;43.96250298;-7.612302548;14.35301254;0.485563888
-20.50180628;15.04222989;3.094517585;40.56608535;8.780201205;-1.637251799;2.869063155;18.53898794;-1.586561569;18.1956962;-52.70840041;-8.212446102;8.237867791;15.21367743;-5.769976971;34.47028003;-3.985451589;20.74984478;0.13760534
-21.93195955;12.46841727;12.56893062;48.25621674;9.67139331;-1.642621106;6.467504861;20.29414889;-1.514700062;19.11197755;-54.27306151;19.67559848;10.24332313;21.82518854;-24.72;17.9780049;-0.071735128;22.29483294;0.130543641
-20.88060255;12.41538373;18.94652329;53.39539668;11.33704361;-1.641529993;7.940127487;19.95251574;-1.351475825;8.638658298;-53.24630084;44.81731003;7.869572862;21.26111999;-14.78127786;0.589727918;2.978372765;20.95702372;1.083658726
-18.01862058;14.46534907;16.33175573;51.92240339;12.75378064;-1.690545981;6.317932206;16.99285702;-0.853252518;-2.746661971;-51.04455944;55.00487499;3.095824077;14.84808228;11.99188108;-10.37371994;4.755188283;19.43;3.023378245
-15.12953724;16.6256187;4.246138769;43.9542744;12.75367008;-1.797646327;3.966943574;12.61414464;0.144585095;-4.342584905;-48.92468668;50.7174675;-1.3256774;6.685681357;36.21039569;-10.03011524;5.500871144;18.96521478;5.218873103
-13.97123876;17.08083835;-12.18359298;34.03399135;10.98351701;-1.877936562;5.054961943;9.159418555;1.710691602;6.217458414;-46.95763363;42.06302844;-3.715417264;0.771366745;44.64174467;1.705300145;5.745498447;19.2324394;6.636561325
-14.9311811;15.51830289;-25.44552113;28.10190787;8.268893122;-1.808341174;11.38392025;8.461039535;3.755457566;20.77740045;-44.49146522;39.34145427;-4.178416914;-1.289743586;37.21459842;20.12412868;5.923011625;19.49156506;6.674908777
-16.57255419;13.00324339;-29.83035224;29.28089707;6.057168568;-1.546309413;19.27416234;10.34289838;5.921119901;26.55296837;-41.47261996;45.02984156;-3.978476092;-0.585426666;23.86007813;37.85075885;6.154545016;19.35348585;5.596701479
-16.62773571;10.7133754;-24.07193634;35.51710879;5.350837343;-1.202892856;20.95681775;12.55571603;7.608860678;15.53636936;-39.10271023;53.15863853;-4.320620941;0.644296949;15.31079018;47.94551193;6.273115467;18.40993816;4.312643998
-13.84019208;8.78175797;-11.40065859;40.83181998;5.962079865;-0.986444864;10.28785922;12.38373956;8.31023139;-9.712609668;-38.9641411;55.66540548;-5.509088959;0.978090945;15.58453282;46.64636895;6.047144771;15.65160812;3.688818718
-9.225654116;6.270078125;2.396757856;39.36654131;6.679250211;-1.04551004;-11.47033762;8.812641414;8.108275167;-37.97;-41.33249748;49.76812305;-6.942609673;0.708085799;21.16656267;34.74442102;5.453099607;9.955012434;3.921309182
-5.61472057;2.197692429;11.58591919;29.43047246;6.223972316;-1.338704488;-34.83482965;3.58335191;7.899226568;-57.05189519;-44.3647269;40.11778939;-7.709319495;1.169746739;25.88;17.14288828;4.793912574;1.578995608;4.448495701
-5.651644588;-3.379389705;12.64996351;14.79028012;4.260777426;-1.650043945;-47.69907535;0.20211106;8.950194456;-61.33582977;-45.20024169;34.34962241;-7.205998986;3.277609695;26.28963019;0.768381005;4.530882985;-6.923471973;4.433033695
-9.735627217;-9.200270164;5.425034793;2.391475511;1.686905891;-1.749625485;-43.55939081;1.518908334;11.93538941;-53.89753361;-42.24999344;36.30538028;-5.380123132;6.565049583;23.20436622;-8.370393112;4.899275383;-11.86403663;3.410078125
-15.56882938;-13.61216114;-7.032861529;-1.875470111;-0.004186623;-1.572368586;-26.12034402;7.632671257;16.17521434;-42.63599214;-36.69377451;42.88875908;-2.598944909;9.487264243;19.0678165;-7.720204436;5.586129413;-11.20555134;1.607476355
-19.76938467;-15.57766135;-19.85310605;3.450241411;0.21713668;-1.266218381;-6.594942803;15.70249436;19.84773416;-34.19314165;-31.70490722;47.06496107;0.597611822;10.65421261;14.67132316;0.908571224;5.772260094;-6.615312936;-0.262659071
-20.34463608;-15.04591483;-28.60211961;14.94084903;2.232529735;-1.068947602;4.304427485;21.83632866;21.24914309;-30.38475351;-29.85598714;44.13257335;3.655306862;9.919195259;8.632136727;12.56494542;4.600435634;-2.60502436;-1.529081248
-18.07984054;-12.57984312;-31.37326195;26.7417531;4.93995018;-1.118239391;3.522708502;23.66771682;20.23358432;-29.05117972;-30.85315835;35.74706579;6.074285149;8.425526958;-0.107088619;21.85217277;1.780048828;-3.03601582;-1.990755335
-15.74503371;-8.845344529;-29.49398784;34.10278497;7.075038614;-1.355007058;-3.393920544;21.73146393;18.60356945;-27.48263076;-31.63429635;28.36322419;7.495671395;7.611439059;-9.642348721;25.54247564;-2.129948653;-7.859029574;-1.969737182
-15.79621207;-4.556815697;-26.27175517;35.6805372;8.030260062;-1.596040522;-7.834238245;18.69615947;18.90554486;-25.00311712;-28.92857418;27.67258958;7.834643303;8.02919292;-15.38143379;23.61523979;-6.018756835;-13.12117005;-2.019303208
-18.47419303;-0.792215468;-24.49718828;33.41;8.085545748;-1.703402053;-5.273367241;17.15288471;22.38057783;-22.80192985;-22.22995438;33.92066799;7.347500213;8.955614297;-13.42056367;18.29153224;-8.914391201;-14.54185726;-2.54545343
-21.84163261;0.993437142;-24.43905173;30.46867776;7.974814141;-1.696685749;1.773993363;17.70785911;27.66660875;-21.90533497;-14.66465813;41.96932829;6.502315958;9.087671173;-4.107853977;12.00415097;-10.54927054;-11.63891234;-3.592775612
-23.63972071;-0.280225651;-23.86165601;28.98271078;8.222565046;-1.711614347;6.951221638;18.78762392;31.43204746;-21.68802325;-10.9140856;45.73604671;5.673993903;7.713268428;7.559948994;5.894260648;-11.36798514;-8.584327543;-4.869687936
-23.29912637;-4.219043893;-20.12888383;28.99295933;8.794669945;-1.850892052;6.122471447;18.15744896;30.6419264;-20.42569559;-13.80514404;42.99191504;4.865765191;5.368956395;15.37718141;-0.143636219;-12.00181327;-10.68764718;-5.922111177
-22.33345558;-8.592383838;-12.78859299;29.07844982;9.274111663;-2.071004034;0.868524297;14.8267496;24.7762207;-17.22175152;-22.31342085;36.51248859;3.686087255;3.438884815;16.47697749;-6.189245043;-12.68166341;-19.40084904;-6.326701496
-22.77821043;-10.44370001;-4.529947949;27.84447228;9.313608756;-2.213435865;-3.40555999;9.808565019;16.22930019;-13.31525611;-32.55632829;30.99810056;1.634466397;3.032359452;13.20646442;-11.14961733;-13.10123697;-30.38075098;-5.837714847
-25.08102128;-8.159209529;0.405357681;25.04479404;8.922959031;-2.153593075;-2.686332445;5.216780681;8.504279298;-11.41968049;-40.86686497;28.83711915;-1.490541852;4.069606076;10.80648254;-12.96061811;-12.82538529;-36.7111764;-4.478672933
-27.3818176;-2.905857336;-0.739070212;21.61075779;8.354870461;-1.929522831;1.987860724;2.547221215;3.60498892;-13.60626575;-46.34979427;28.4956069;-5.353072684;5.328012678;12.95763841;-10.15724396;-11.82991572;-34.80733217;-2.562736456
-26.95282621;1.953908363;-7.076073594;18.79313159;7.746211384;-1.727433637;5.671497442;1.586517082;0.730189904;-19.56433869;-50.85713958;26.66419555;-9.186788641;5.411654142;19.01522226;-3.54456936;-10.62611741;-27.84706712;-0.597996749
-22.67451995;3.34015987;-14.52721367;17.23740956;6.894355545;-1.729320392;4.250029297;0.788614352;-2.659960234;-26.71056942;-56.58972297;21.83704771;-12.17953734;3.857501838;25.16894786;3.584373974;-9.808155596;-23.38188059;0.934120852
-16.43060882;1.028969725;-18.61275506;16.70079528;5.411159195;-1.953915399;-1.664802654;-1.289210489;-8.304717223;-32.01297443;-63.56432909;15.8604344;-13.88756437;1.489387121;28.26696791;7.218802075;-9.428436125;-26.74814005;1.838015619
-12.09932966;-1.809704926;-17.48364972;16.47802901;3.133526098;-2.231776456;-7.254074264;-4.739958552;-15.29731621;-34.01230567;-69.23865996;12.06274828;-14.43355696;-0.253483038;28.74177781;5.353230139;-8.825127981;-35.77125326;2.330633537
-12.77703517;-0.783539071;-12.92278836;16.02169555;0.409497628;-2.339465917;-7.909368768;-8.269822878;-20.56049306;-33.4978777;-70.64378459;11.83783852;-14.39998799;-0.462683805;29.98557363;-0.269403822;-7.157263533;-41.52606061;2.909186335
-18.37208651;6.341834558;-8.651071605;15.19335744;-2.040868593;-2.179779373;-3.468382278;-10.33647041;-21.32561621;-32.50050404;-67.14386299;12.98798018;-14.50978509;0.536793466;34.79915656;-4.813634968;-4.242861279;-34.98900101;4.003882151
-25.49149211;17.6573356;-7.366583273;14.04234115;-3.630019531;-1.856881807;1.631530068;-10.45873245;-17.56562522;-32.57819052;-61.36300464;11.48073995;-15.27564318;1.475265188;42.23820989;-3.220087891;-0.941592078;-14.39730916;5.634446329
-29.76548767;28.15791931;-8.851322901;12.50954743;-4.37785848;-1.588432388;2.443063932;-9.59860621;-12.29770069;-33.74158577;-57.38274559;5.100783978;-16.77647628;1.173349445;47.87888777;6.464069179;1.358907668;12.66724941;7.317644905
-28.85529785;33.12434073;-10.51896784;10.50607685;-4.94447635;-1.535998095;-1.889059617;-9.328688289;-9.410999696;-34.67057593;-57.6608895;-4.310270631;-18.6382953;-0.498482699;47.46869834;21.46345414;1.828387306;34.26057449;8.313022517
-23.89139836;31.30413011;-9.784419636;8.36029759;-6.14129473;-1.697260298;-7.250999965;-10.50604981;-10.74913756;-33.84488025;-61.23050216;-12.12740104;-20.21355637;-2.475459834;40.82806267;35.51160972;0.967444355;42.22512666;8.058640366
-18.35817242;25.52215895;-6.240708053;7.10377268;-8.264603283;-1.938780655;-8.282921949;-12.54558302;-14.82909567;-30.67830729;-64.66448864;-14.73038328;-20.88469696;-3.261844736;32.50211536;42.31358845;0.357446362;37.18017306;6.516507106
-15.41694729;20.38425838;-1.911232973;8.035672548;-10.76825364;-2.121279958;-3.366356566;-13.85677689;-18.23007813;-25.95216004;-64.96685237;-12.58124028;-20.36286636;-2.009781729;28.41275631;39.19877758;1.489698913;26.80911398;4.215491128
-15.76542805;18.97311389;0.509583069;11.61374806;-12.56251168;-2.196977517;3.704355228;-13.05909856;-18.45632879;-21.41873863;-61.95865491;-9.960758656;-18.83292524;0.879311234;31.24621181;28.76495519;4.570009766;19.40017432;1.986855826
-17.55797088;21.07411498;-0.104294184;16.49553212;-12.76010866;-2.201029112;7.039800036;-10.00896517;-15.85309235;-18.89855152;-58.19738025;-11.58553215;-16.85090646;4.026444955;38.46260291;17.46521657;8.278561253;18.13461865;0.574165684
-18.21883453;24.07092297;-2.423730477;19.7523587;-11.34188881;-2.168482817;4.119377725;-5.887917904;-12.98610574;-19.3416552;-56.57097281;-18.92476551;-15.03539211;5.967646654;44.58148988;11.87229905;10.72618722;20.38711869;0.340879481
-16.56745855;25.4616305;-3.785357793;18.54302597;-9.251973835;-2.077109995;-1.531512682;-2.375426667;-12.08665855;-22.27977709;-57.64978002;-29.17664567;-13.73719102;6.015769315;45.70630108;14.75457073;10.87526474;21.69544538;1.197024282
-13.60865156;24.79455381;-2.347317027;12.30381492;-7.8336141;-1.880929527;-3.10168135;-0.600447476;-12.85046879;-25.97238678;-59.04739897;-37.54477339;-12.90687614;4.544708742;42.34123398;23.31070757;9.295111336;20.24721986;2.723289956
-11.5428505;23.56585636;1.453205098;3.781334146;-7.986838877;-1.59783144;3.405561478;-0.626584639;-12.60324169;-28.29398402;-57.3428933;-40.76812026;-12.24968955;2.610542634;38.13319472;30.75339525;7.647181221;17.91014891;4.388133245
-11.96197265;23.48166271;5.229443687;-2.232766561;-9.62403588;-1.349894278;14.91612916;-1.713131536;-8.814227311;-27.98148575;-51.00568189;-39.07238931;-11.53846983;1.260369744;35.86953083;30.47336158;7.323167242;17.47344188;5.754132233
-14.70218642;24.80825733;6.414277321;-1.993598933;-11.78284053;-1.293868231;22.73352354;-2.992844948;-1.859902156;-25.47950441;-41.97644586;-35.31234621;-10.82095102;0.997685415;34.58784687;20.34864564;8.34480693;19.31749424;6.608855011
-18.14105056;26.24646794;4.074893848;4.305666659;-13.2923503;-1.488008159;18.86107174;-3.997987624;4.41170547;-22.69234265;-34.66980536;-32.47934923;-10.33781092;1.666623883;30.68166979;4.463479375;9.412186935;20.95788291;6.988197688
-20.52682798;26.26686994;-0.515266341;12.08328204;-13.51604676;-1.815644181;2.261733076;-4.734872118;5.049458019;-21.64029654;-33.18579831;-31.83749872;-10.22020139;2.707138672;22.17053808;-9.057844802;9.044086249;19.82422684;7.087236836
-21.20346765;24.54764991;-4.790039063;15.08423748;-12.67187934;-2.049302902;-19.93143204;-5.435095263;-2.360732065;-22.91498864;-38.7928576;-32.96342729;-10.25553471;3.547416087;12.12503394;-12.93671963;6.868272738;16.32370944;7.098289528
-20.83861026;22.19290843;-6.46356198;9.693605423;-11.55442081;-2.018013415;-37.20781051;-6.309563801;-15.55645978;-25.15972213;-49.34801695;-35.04193935;-9.991730824;3.905786335;7.572329978;-5.254249932;4.012193039;13.90046246;7.069329685
-20.64942165;20.63483138;-4.65301401;-2.105727168;-10.90697663;-1.742777819;-42.69931534;-7.486819993;-28.65274396;-26.11742227;-60.74043893;-37.76909129;-9.171989779;3.886648548;14.03921809;9.460355676;2.286038664;15.7462523;6.885478913
-21.37661239;20.33828;-0.013509167;-13.40469476;-10.90940357;-1.422990798;-37.10519654;-9.048651486;-35.68612147;-24.50926004;-69.05557922;-40.95858323;-8.16493636;3.864796821;30.03763427;23.40623754;2.820351262;21.21491857;6.400768499
-22.82260558;20.51962357;5.844524505;-16.52237652;-11.12229666;-1.27967938;-26.94113347;-10.98016708;-34.13885986;-21.20039508;-72.00117489;-43.54248526;-7.96619167;4.226382504;46.53800613;30.78391606;5.234195411;25.55279567;5.622619734
-24.20378582;20.04936774;11.03639673;-8.008985388;-10.87595877;-1.383678975;-19.09485254;-13.0078507;-26.07975886;-18.58290994;-69.10274452;-43.44056581;-9.619416019;5.093732571;52.79311182;31.37138714;7.959262841;23.63233386;4.783866375
-24.90120365;18.57192789;13.84339077;8.86477815;-9.782105121;-1.610302679;-16.24623034;-14.51194208;-16.41916717;-18.59077721;-61.23998102;-38.93669879;-13.36687764;6.198313354;44.55048911;29.74309847;9.424827161;14.60445503;4.210288114
-24.9501484;16.72810004;13.04821582;25.86287852;-7.994915574;-1.754000474;-16.40211511;-14.71452965;-9.803014503;-21.01414593;-50.31497684;-30.55652789;-18.13578176;7.021411897;28.16437216;30.73531278;9.163892211;3.278109137;4.069448588
-24.90442592;15.31135191;8.414309773;34.64274542;-6.068283355;-1.701389404;-16.06562658;-13.1145156;-8.335900449;-23.63239299;-39.1904047;-21.62654864;-21.83047002;7.160512683;16.79231791;34.76735085;8.016641898;-3.269200103;4.218678672
-25.24374524;14.2810724;1.184339291;31.50590967;-4.562402789;-1.516229257;-13.73768748;-9.877962308;-11.32486454;-24.14806559;-31.33125948;-16.6059095;-22.38122623;6.681566208;20.92849109;36.94880896;7.343542682;-1.177003115;4.317507203
-25.83712272;12.7162973;-5.949758098;19.01643612;-3.713396415;-1.371616992;-10.76817439;-5.86335642;-16.5973187;-22.27306282;-29.65166003;-18.19438824;-18.9517646;6.156994276;40.22679405;31.04443431;7.90964478;7.211658729;4.146961327
-25.90819725;9.850683464;-9.857718485;3.714929349;-3.39127605;-1.397593197;-9.368247101;-2.221827665;-22.02776839;-20.08222171;-34.9184085;-25.42450283;-12.53543655;6.279112349;62.9920849;15.38371078;9.297165047;15.37929113;3.868158165
-24.56241859;6.192068047;-8.692207907;-8.199986643;-3.325838157;-1.579179125;-10.14007813;0.155938459;-26.25377202;-20.21928505;-44.86060329;-34.30461333;-5.525712947;7.282857256;74.0670732;-4.136935231;10.24806458;17.91958698;3.959623454
-21.52016283;3.527170048;-3.245562905;-14.19315449;-3.378909521;-1.786179042;-11.56271164;0.964542604;-28.58181327;-23.47435784;-54.98476831;-40.57455728;-0.501229922;8.633196047;65.42615991;-16.92016447;9.628579996;14.59987924;4.828265186
-17.52826449;3.606295391;3.230449554;-15.72193925;-3.634622933;-1.89593806;-11.70301332;0.405451006;-28.74146063;-27.90234833;-60.92390114;-42.45761638;1.030611683;9.29654219;41.65533191;-14.84656344;7.283271583;9.903675977;6.393769559
-14.10188277;6.601609538;6.991387209;-15.88565722;-4.254307063;-1.893322956;-10.2346073;-1.13877965;-26.94349216;-30.35342885;-60.86275555;-41.35695613;-0.816730326;8.468170431;16.3804136;1.46228375;4.178903577;8.727513295;8.023900823
-12.67782556;10.79217354;6.412248923;-16.52656102;-5.245593117;-1.863412614;-8.700692373;-3.363400986;-24.04620305;-29.13601423;-56.32219872;-40.16217541;-4.722373554;6.214013717;2.577314646;22.2898981;1.774739752;12.13531398;8.942631391
-13.68529132;13.92458668;3.339833329;-16.98775933;-6.361891801;-1.896137109;-8.838657255;-6.057423431;-21.33371344;-25.46594117;-50.71108894;-40.72220731;-9.151924903;3.483189832;4.166137529;35.11813745;1.085680064;16.78854323;8.829550429
-16.17732352;15.1703966;1.921049866;-15.19975233;-7.232799104;-1.999763994;-10.74491879;-8.975619192;-19.80373768;-22.39348167;-46.74806419;-42.54587164;-13.20641194;1.422331442;14.91825478;33.17743539;2.077956098;18.27628591;8.121080188
-18.36982333;15.9382929;5.427095141;-9.929465056;-7.630158185;-2.102940787;-12.76338824;-11.7966907;-19.5038625;-22.15923795;-44.74495898;-43.5971044;-16.77779104;0.51687572;24.74507109;19.91581217;3.780469905;15.1766989;7.720123906
-18.83066791;18.67752257;13.26635525;-2.277764897;-7.658847721;-2.135274009;-13.17345609;-14.26068367;-19.59504356;-24.36308878;-43.04382371;-42.27692446;-20.01388046;0.283333215;27.76312429;5.992265265;5.01063166;10.25388;8.29287684
-17.53495143;24.53815908;20.57454263;4.712353701;-7.715026066;-2.102216622;-11.87580835;-16.3295655;-19.20684765;-26.5866546;-40.12124271;-38.83443514;-22.61701424;-0.184203749;25.64282884;1.094876876;5.216510716;7.936046713;9.696633725
-15.97459509;31.83923308;21.10976981;7.929823395;-8.229614125;-2.080199198;-10.24753056;-18.13423568;-18.33513664;-26.82693084;-36.46134884;-35.12141903;-23.61739496;-1.244516607;24.13656056;6.89495361;4.864158532;10.52740023;11.01781642
-16.10702112;36.74726386;11.71426323;6.082661256;-9.372133029;-2.138663732;-9.254107506;-19.67563895;-17.86491277;-25.38287199;-34.45806706;-33.07321721;-21.89032696;-2.173116461;26.51884406;16.54621247;5.091320044;16.52152809;11.22891641
-18.79721202;35.79332794;-4.837657209;0.293742139;-10.91310215;-2.266926352;-7.877863961;-20.5515341;-18.5593503;-24.33531947;-36.27455923;-33.26304717;-17.09214927;-1.617334802;30.0595184;20.94945202;6.836649033;22.25801304;9.968827062
-22.90284621;28.33599353;-20.95209043;-6.787532191;-12.32542688;-2.377609062;-3.877419228;-20.0583437;-19.90163319;-25.08025253;-41.42076212;-34.62326849;-10.30550248;1.23310772;28.70126373;16.61330562;10.03748014;25.10711747;7.833009428
-25.81013198;17.09078005;-28.90703645;-12.46828644;-13.04453598;-2.383073171;3.35940354;-17.72783026;-19.99198983;-26.35832422;-46.2497822;-35.35108875;-3.809104126;5.717892264;19.46799842;8.672352791;13.49906751;25.19598889;5.939432541
-25.19504761;6.37525097;-26.01509841;-14.98348536;-12.72092642;-2.271328076;10.52519989;-13.91908643;-16.86596151;-24.91906082;-46.14563265;-34.13102078;0.032519341;9.886365891;6.681910026;6.542654497;15.61399078;24.33203727;5.111267974
-20.798693;-0.525103794;-16.51590904;-13.54178059;-11.3341407;-2.110661931;11.44251774;-9.911322925;-10.26878526;-18.50579555;-38.94826777;-30.78556138;0.114842847;11.78742986;-0.196856022;15.69628837;15.49297636;23.53137519;5.317852741
-14.86609388;-2.91637757;-8.593072311;-7.92807952;-9.146329488;-1.983139851;1.542043571;-7.261957009;-2.313744758;-8.477017032;-26.9505164;-26.12478113;-2.719785967;10.91294925;6.1837863;32.29429838;13.69180124;21.79031373;5.796209795
-10.80663327;-2.252920699;-8.425956511;1.567010339;-6.566206194;-1.915302356;-17.48625115;-6.80164899;3.75946546;0.589785331;-15.69812053;-21.38570872;-6.180058594;8.612432898;24.58792825;45.26396469;11.91712744;17.36610389;5.722152064
-10.95866082;-0.405645678;-15.51930689;13.66116098;-4.013550786;-1.872899247;-37.04682855;-8.023906972;5.896802434;4.34838531;-10.24972052;-17.72992652;-7.955800888;7.060108877;45.03722288;44.50496511;11.80857266;10.26932695;4.871449024
-15.05782573;1.777308053;-22.85124896;25.63434253;-1.832383706;-1.818127223;-46.44423911;-9.411966927;4.741592731;2.308796203;-11.63067737;-15.93294487;-7.164332359;7.533116854;55.52729869;28.94528305;13.63789989;3.398998731;3.752356249
-20.5189505;4.567473854;-21.97722258;33.80604637;-0.251300188;-1.762451087;-40.14789753;-9.541170268;3.010029297;-1.689319364;-16.22854648;-16.15038848;-4.837255334;9.378888413;50.5452611;8.103528382;15.94255524;0.965253484;3.146790479
-24.28939451;8.371194949;-9.53488233;35.18688796;0.627407048;-1.753244438;-22.05964012;-8.1547046;3.159188531;-2.814355894;-18.68918264;-17.75532375;-3.103617242;10.55079229;34.77166498;-4.272344837;16.49319992;5.3658253;3.473866131
-24.86810197;12.80114869;9.6193892;29.44673294;0.816279458;-1.805023862;-3.166276118;-6.381042577;5.284361295;0.464041918;-16.12169951;-19.47665348;-3.637179389;9.330539831;19.17547005;0.125853375;13.97828165;15.13794238;4.495128022
-23.02554323;16.68759627;25.12014579;19.70680105;0.406373979;-1.852554335;6.065154403;-5.905401899;7.074350092;5.082240091;-10.29598795;-20.00977782;-6.475887704;5.854003016;12.75317523;18.29534305;9.152048925;25.68260458;5.555661065
-20.83308628;18.90595481;27.908243;11.18874492;-0.483254453;-1.791348944;2.97515305;-7.721363016;5.92778249;6.480159286;-6.008546277;-18.84291254;-10.07015772;2.164829321;16.45909808;38.04755051;4.497262062;32.08516181;6.102803301
-19.92684707;19.15060017;16.35727634;8.229738582;-1.739164545;-1.584397312;-5.861301642;-11.40885685;1.435121517;3.362678093;-6.827302204;-16.66837879;-12.5190991;0.691815265;23.79920447;46.38472276;2.546910579;31.74915741;6.032193308
-20.42562965;17.9577838;-2.668507199;11.54432098;-3.2421642;-1.33434435;-10.186767;-15.44828082;-3.965736023;-0.488842127;-11.62763408;-14.91992339;-13.05492775;2.342834831;26.98611075;37.98632476;4.072891134;25.08605039;5.615483795
-21.24241351;16.09913016;-18.57019378;17.74062618;-4.819453264;-1.232614784;-4.315123742;-18.25555227;-6.823070544;0.400340088;-14.87624601;-14.68112729;-12.62016092;5.757398489;23.19557925;17.99072221;7.520776986;14.44361277;5.150733246
